timestamp,AF3,F7,F3,FC5,T7,P7,O1,O2,P8,T8,FC6,F4,F8,AF4
2024-07-03 15:44:05.671200,4304.359,4285.769,4317.051,4295.128,4283.077,4267.051,4259.359,4252.308,4270.897,4267.692,4468.974,4459.359,4375.513,4400.256
2024-07-03 15:44:05.679000,4301.795,4294.744,4316.026,4330.897,4264.872,4265.256,4255.769,4261.026,4270.385,4263.333,4458.205,4466.282,4363.462,4422.051
2024-07-03 15:44:05.686900,4295.897,4282.564,4320.641,4326.667,4277.308,4261.282,4247.821,4252.692,4255.769,4260.641,4444.359,4464.744,4348.59,4425.385
2024-07-03 15:44:05.694700,4288.59,4275.0,4315.641,4286.538,4300.385,4258.974,4248.462,4241.795,4264.231,4259.872,4452.692,4455.769,4359.231,4403.462
2024-07-03 15:44:05.702400,4283.974,4280.0,4308.974,4296.538,4290.385,4254.615,4249.359,4248.974,4265.897,4256.154,4458.974,4461.538,4358.077,4401.795
2024-07-03 15:44:05.710200,4275.385,4282.564,4302.564,4326.026,4257.821,4244.615,4241.538,4247.051,4245.769,4243.846,4441.282,4459.744,4327.051,4396.538
2024-07-03 15:44:05.717900,4281.923,4276.795,4307.179,4317.051,4267.179,4246.538,4242.564,4245.513,4255.897,4257.821,4440.897,4454.359,4326.154,4381.667
2024-07-03 15:44:05.725700,4295.0,4268.333,4313.846,4298.974,4304.872,4261.154,4253.333,4258.205,4279.231,4284.103,4456.282,4456.026,4358.718,4387.179
2024-07-03 15:44:05.733500,4283.077,4268.59,4298.974,4297.308,4292.564,4256.538,4248.077,4254.359,4265.128,4259.231,4439.359,4444.872,4349.231,4390.256
2024-07-03 15:44:05.741300,4280.0,4279.487,4300.769,4314.231,4263.333,4249.872,4241.41,4246.795,4252.308,4234.231,4432.692,4443.59,4331.154,4392.564
2024-07-03 15:44:05.749000,4300.0,4292.051,4326.538,4333.333,4289.103,4268.59,4259.103,4263.333,4266.538,4267.692,4465.0,4468.718,4347.949,4415.641
2024-07-03 15:44:05.756800,4296.154,4296.795,4324.744,4321.795,4308.846,4279.231,4268.077,4271.538,4271.026,4278.205,4468.077,4476.667,4348.077,4419.359
2024-07-03 15:44:05.764500,4277.692,4286.154,4307.692,4304.359,4283.333,4266.282,4253.846,4253.333,4261.923,4241.538,4439.231,4452.436,4341.154,4385.385
2024-07-03 15:44:05.772300,4276.026,4272.692,4309.744,4308.846,4259.615,4260.385,4245.897,4239.615,4261.026,4239.744,4425.897,4436.795,4347.179,4374.231
2024-07-03 15:44:05.780000,4277.308,4278.974,4313.077,4308.718,4252.949,4261.795,4248.462,4248.462,4264.103,4263.462,4429.872,4446.282,4342.692,4395.0
2024-07-03 15:44:05.787800,4288.205,4291.41,4312.949,4305.385,4284.744,4266.795,4255.641,4264.359,4263.077,4260.0,4441.41,4461.667,4341.538,4398.462
2024-07-03 15:44:05.795500,4296.538,4286.923,4309.487,4307.821,4307.949,4267.949,4256.538,4263.718,4264.872,4245.0,4454.231,4457.436,4347.821,4386.41
2024-07-03 15:44:05.803400,4283.846,4271.538,4298.205,4310.769,4257.949,4251.795,4246.923,4259.103,4283.077,4248.462,4450.641,4443.974,4340.641,4393.333
2024-07-03 15:44:05.811200,4284.103,4269.103,4308.462,4307.308,4240.769,4255.256,4256.667,4277.821,4299.487,4265.128,4434.872,4458.59,4339.231,4413.974
2024-07-03 15:44:05.819100,4290.256,4284.231,4320.769,4297.051,4294.359,4276.538,4271.282,4285.128,4290.128,4265.513,4444.615,4471.026,4361.41,4413.205
2024-07-03 15:44:05.827000,4277.564,4296.41,4302.564,4302.436,4301.923,4269.872,4254.359,4265.513,4272.564,4253.333,4468.718,4455.128,4371.026,4396.667
2024-07-03 15:44:05.834900,4277.821,4308.846,4292.179,4325.641,4277.051,4255.385,4239.744,4252.949,4258.59,4246.923,4462.564,4444.744,4367.692,4388.846
2024-07-03 15:44:05.842700,4297.949,4319.103,4308.077,4332.436,4296.795,4263.205,4249.615,4250.769,4252.436,4235.641,4439.744,4447.436,4361.026,4387.436
2024-07-03 15:44:05.850600,4303.846,4315.513,4315.769,4325.128,4295.513,4266.026,4252.051,4254.103,4269.359,4232.051,4444.231,4454.615,4336.795,4401.154
2024-07-03 15:44:05.858400,4284.872,4307.692,4304.231,4323.205,4267.564,4257.692,4246.795,4265.0,4286.667,4252.692,4456.282,4459.359,4327.821,4417.308
2024-07-03 15:44:05.866300,4260.641,4293.846,4291.667,4303.333,4284.231,4256.923,4244.744,4256.026,4266.41,4255.769,4428.077,4443.077,4346.282,4395.128
2024-07-03 15:44:05.874100,4266.154,4286.026,4292.436,4296.41,4295.385,4264.231,4246.282,4245.769,4246.282,4233.333,4419.103,4432.949,4359.359,4369.872
2024-07-03 15:44:05.882000,4285.769,4299.744,4296.154,4324.103,4266.154,4270.128,4252.179,4257.821,4258.59,4237.564,4454.487,4444.359,4364.872,4381.41
2024-07-03 15:44:05.889800,4279.487,4315.385,4284.615,4330.641,4250.0,4261.154,4249.487,4257.308,4269.872,4267.051,4462.564,4440.513,4369.487,4395.256
2024-07-03 15:44:05.897500,4276.923,4307.821,4283.718,4309.359,4273.846,4255.256,4243.846,4253.718,4276.41,4269.103,4445.641,4441.538,4350.128,4403.974
2024-07-03 15:44:05.905300,4293.462,4305.513,4304.487,4317.949,4295.769,4264.103,4255.256,4274.615,4284.231,4255.385,4460.0,4464.359,4338.462,4410.641
2024-07-03 15:44:05.913000,4292.949,4322.821,4315.256,4344.744,4291.282,4267.436,4269.231,4288.077,4281.41,4261.667,4468.59,4468.59,4372.051,4407.949
2024-07-03 15:44:05.920900,4284.744,4320.513,4310.385,4324.487,4279.872,4264.103,4262.692,4277.051,4269.744,4253.59,4444.615,4460.641,4389.872,4410.128
2024-07-03 15:44:05.928800,4281.154,4294.231,4304.231,4296.923,4282.051,4264.359,4247.051,4266.154,4260.513,4235.128,4445.769,4462.949,4366.795,4410.769
2024-07-03 15:44:05.936700,4277.564,4289.231,4304.744,4308.59,4286.154,4262.949,4245.256,4263.59,4262.564,4260.385,4457.051,4457.564,4350.256,4398.718
2024-07-03 15:44:05.944500,4291.923,4310.385,4316.026,4318.333,4261.41,4261.154,4259.487,4266.667,4272.564,4288.59,4460.513,4461.282,4359.872,4400.256
2024-07-03 15:44:05.952400,4308.59,4318.846,4322.308,4321.41,4238.462,4266.154,4268.59,4277.051,4274.744,4268.077,4471.923,4478.846,4371.923,4414.359
2024-07-03 15:44:05.960200,4294.872,4308.462,4309.615,4328.59,4275.897,4267.179,4258.462,4280.0,4274.872,4251.154,4467.821,4472.436,4371.026,4413.846
2024-07-03 15:44:05.968000,4277.436,4299.744,4300.0,4320.641,4319.872,4265.385,4247.308,4270.256,4280.513,4262.564,4451.154,4451.282,4367.051,4408.59
2024-07-03 15:44:05.975700,4285.385,4295.256,4303.718,4299.103,4280.641,4263.205,4242.821,4260.513,4270.897,4250.641,4432.051,4449.103,4351.795,4404.487
2024-07-03 15:44:05.983500,4291.667,4296.795,4308.718,4306.667,4251.667,4261.923,4239.744,4264.359,4263.718,4237.821,4430.769,4460.897,4332.692,4403.333
2024-07-03 15:44:05.991200,4289.872,4293.846,4312.821,4327.692,4292.692,4264.487,4243.333,4265.513,4273.846,4266.026,4457.051,4467.051,4347.308,4410.128
2024-07-03 15:44:05.999000,4301.026,4295.128,4318.974,4318.333,4289.615,4262.821,4249.744,4263.974,4271.538,4286.154,4481.795,4471.538,4381.667,4408.59
2024-07-03 15:44:06.006700,4308.205,4309.487,4322.436,4309.744,4246.923,4261.026,4249.744,4276.41,4266.667,4264.744,4477.949,4476.026,4386.154,4403.59
2024-07-03 15:44:06.014600,4307.564,4322.821,4327.179,4329.359,4271.026,4274.359,4257.564,4283.333,4279.872,4260.256,4468.205,4476.026,4371.923,4425.0
2024-07-03 15:44:06.022500,4309.231,4325.128,4328.333,4343.846,4322.179,4284.103,4265.769,4272.051,4286.538,4281.538,4466.795,4480.128,4363.333,4451.538
2024-07-03 15:44:06.030400,4309.872,4307.051,4317.949,4326.538,4298.974,4270.513,4253.846,4263.846,4277.821,4271.795,4454.487,4479.231,4355.256,4430.897
2024-07-03 15:44:06.038200,4313.59,4297.179,4312.436,4315.897,4271.154,4266.923,4246.538,4267.179,4272.436,4255.641,4460.513,4465.385,4374.103,4394.744
2024-07-03 15:44:06.046100,4318.846,4314.103,4323.077,4327.949,4291.667,4274.872,4252.436,4266.795,4281.026,4273.846,4478.718,4462.051,4403.077,4402.949
2024-07-03 15:44:06.053900,4311.154,4322.564,4331.923,4333.205,4282.051,4271.282,4252.436,4264.872,4286.026,4293.718,4468.846,4475.641,4385.128,4424.359
2024-07-03 15:44:06.061600,4306.154,4309.103,4321.667,4330.128,4257.821,4269.615,4249.231,4264.231,4262.051,4281.538,4458.205,4475.897,4345.641,4430.0
2024-07-03 15:44:06.069400,4309.615,4295.513,4300.128,4309.231,4279.487,4269.359,4240.256,4246.026,4227.179,4242.308,4448.59,4453.59,4331.538,4427.051
2024-07-03 15:44:06.077200,4290.513,4283.974,4287.692,4287.436,4303.718,4262.308,4229.872,4231.667,4226.923,4213.846,4414.615,4433.846,4334.744,4401.667
2024-07-03 15:44:06.085000,4271.026,4271.41,4289.487,4296.667,4289.103,4261.795,4236.538,4247.692,4252.821,4232.308,4401.795,4435.641,4335.128,4376.282
2024-07-03 15:44:06.092700,4291.923,4274.615,4308.718,4305.256,4246.538,4264.487,4251.795,4273.59,4271.795,4265.0,4448.59,4461.41,4345.513,4390.513
2024-07-03 15:44:06.100500,4328.846,4291.923,4335.897,4307.308,4228.718,4266.538,4263.333,4288.718,4287.436,4285.641,4498.846,4492.949,4385.256,4428.333
2024-07-03 15:44:06.108200,4337.436,4309.103,4338.846,4322.436,4279.103,4276.282,4264.231,4286.41,4293.974,4298.077,4491.41,4499.615,4404.872,4450.0
2024-07-03 15:44:06.116000,4315.385,4308.718,4317.308,4316.282,4321.923,4280.641,4253.974,4270.256,4281.282,4281.667,4460.0,4480.256,4368.846,4435.385
2024-07-03 15:44:06.123800,4302.692,4297.821,4315.769,4302.436,4285.897,4274.744,4245.513,4268.205,4277.821,4265.641,4462.949,4468.333,4345.513,4420.0
2024-07-03 15:44:06.131600,4315.769,4293.59,4334.872,4323.974,4257.308,4278.974,4252.179,4283.077,4299.359,4297.949,4481.667,4479.103,4385.0,4436.282
2024-07-03 15:44:06.139300,4323.974,4269.359,4340.641,4318.59,4261.154,4284.487,4260.385,4277.692,4302.308,4313.59,4462.949,4485.513,4394.872,4441.795
2024-07-03 15:44:06.147100,4302.308,4243.333,4320.641,4273.462,4257.949,4272.692,4253.59,4260.256,4261.923,4257.564,4434.103,4468.077,4335.0,4409.103
2024-07-03 15:44:06.154800,4276.026,4250.897,4296.154,4273.59,4282.564,4261.154,4243.59,4259.359,4239.359,4216.795,4442.179,4451.026,4310.769,4393.077
2024-07-03 15:44:06.162600,4276.154,4261.154,4296.795,4304.103,4287.436,4269.487,4245.385,4262.821,4256.154,4254.872,4447.692,4454.231,4346.795,4406.538
2024-07-03 15:44:06.170300,4298.59,4259.487,4314.872,4296.923,4261.282,4286.538,4253.59,4266.282,4275.641,4303.846,4446.923,4463.205,4369.103,4414.487
2024-07-03 15:44:06.178200,4307.564,4255.256,4314.872,4281.795,4266.026,4281.154,4251.795,4266.667,4276.026,4285.641,4453.59,4460.0,4343.333,4415.256
2024-07-03 15:44:06.186000,4297.821,4239.103,4306.923,4293.205,4265.641,4266.282,4252.179,4257.692,4260.0,4240.769,4452.949,4456.41,4339.872,4413.333
2024-07-03 15:44:06.193900,4301.282,4236.923,4322.949,4298.333,4266.154,4279.487,4263.718,4264.231,4254.744,4245.769,4467.436,4472.308,4375.769,4414.615
2024-07-03 15:44:06.201700,4312.821,4261.026,4333.846,4290.769,4292.949,4287.436,4264.487,4277.051,4269.359,4268.974,4481.282,4479.615,4380.769,4409.231
2024-07-03 15:44:06.209600,4311.154,4268.718,4320.385,4301.667,4289.744,4268.205,4262.051,4271.154,4282.308,4270.641,4463.59,4468.462,4355.769,4401.154
2024-07-03 15:44:06.217500,4303.333,4252.692,4310.256,4316.667,4255.128,4257.308,4261.538,4262.949,4275.256,4272.821,4450.897,4467.179,4335.513,4417.692
2024-07-03 15:44:06.225400,4296.795,4243.462,4310.385,4298.846,4259.744,4266.282,4255.385,4262.564,4263.077,4273.462,4461.667,4466.795,4344.615,4427.821
2024-07-03 15:44:06.233200,4293.846,4246.538,4309.103,4283.462,4273.333,4270.0,4248.462,4264.103,4261.154,4248.333,4461.538,4460.256,4365.128,4413.59
2024-07-03 15:44:06.241100,4302.436,4256.282,4310.641,4300.0,4257.949,4270.0,4250.128,4269.872,4264.231,4240.513,4464.615,4471.538,4365.256,4426.41
2024-07-03 15:44:06.248900,4309.487,4265.897,4309.231,4309.615,4262.179,4273.077,4250.256,4270.769,4266.923,4276.923,4481.282,4478.718,4357.564,4443.333
2024-07-03 15:44:06.256600,4298.846,4256.154,4300.0,4289.103,4274.872,4277.051,4249.872,4263.59,4266.538,4287.692,4476.667,4458.462,4358.077,4410.513
2024-07-03 15:44:06.264400,4285.513,4251.282,4297.821,4276.795,4272.692,4280.513,4255.128,4261.795,4263.205,4250.513,4459.487,4442.692,4351.923,4391.795
2024-07-03 15:44:06.272100,4287.949,4273.077,4305.0,4301.154,4270.513,4272.949,4254.359,4257.051,4263.846,4235.128,4455.385,4452.308,4346.538,4412.308
2024-07-03 15:44:06.279900,4300.769,4272.564,4315.128,4317.436,4273.205,4265.256,4250.128,4248.077,4271.282,4266.282,4460.897,4466.795,4359.615,4422.308
2024-07-03 15:44:06.287600,4302.821,4250.256,4317.949,4298.462,4287.179,4273.846,4249.231,4249.103,4266.923,4285.385,4465.641,4464.487,4359.872,4422.949
2024-07-03 15:44:06.295400,4293.718,4263.333,4304.744,4287.949,4291.795,4277.051,4248.077,4250.128,4248.077,4267.821,4463.59,4444.359,4356.282,4413.59
2024-07-03 15:44:06.303100,4290.897,4281.795,4291.923,4297.051,4261.282,4267.692,4246.667,4246.154,4243.462,4240.385,4450.641,4434.359,4347.821,4399.359
2024-07-03 15:44:06.310900,4297.179,4263.846,4304.487,4298.462,4245.897,4266.538,4245.641,4246.282,4253.333,4232.564,4445.641,4450.385,4321.538,4409.487
2024-07-03 15:44:06.318700,4296.538,4257.692,4323.077,4300.0,4280.769,4266.923,4247.692,4245.128,4253.205,4248.846,4461.41,4459.615,4335.641,4411.026
2024-07-03 15:44:06.326500,4295.256,4275.769,4326.154,4315.769,4298.077,4263.205,4258.205,4248.718,4251.154,4262.564,4462.949,4460.385,4371.282,4402.949
2024-07-03 15:44:06.334200,4311.026,4278.59,4329.231,4323.077,4287.821,4276.026,4272.179,4269.615,4278.205,4274.231,4454.487,4478.333,4368.333,4434.615
2024-07-03 15:44:06.342000,4308.718,4272.564,4323.205,4301.923,4289.487,4282.308,4262.436,4272.949,4292.436,4271.795,4458.718,4478.846,4355.256,4438.718
2024-07-03 15:44:06.349700,4279.744,4265.769,4311.538,4285.769,4261.41,4267.692,4245.641,4251.538,4257.821,4247.564,4461.923,4455.897,4349.103,4388.718
2024-07-03 15:44:06.357600,4275.769,4265.256,4311.538,4305.769,4235.256,4267.436,4255.769,4250.769,4241.923,4240.128,4463.077,4460.128,4333.077,4386.41
2024-07-03 15:44:06.365400,4298.462,4267.179,4319.103,4304.872,4275.897,4284.615,4271.795,4266.282,4277.051,4268.974,4474.744,4480.769,4339.487,4432.436
2024-07-03 15:44:06.373300,4305.128,4272.821,4319.872,4284.615,4308.974,4279.872,4256.538,4263.59,4285.897,4291.667,4474.103,4474.744,4378.974,4443.205
2024-07-03 15:44:06.381100,4293.974,4276.154,4314.103,4312.821,4283.462,4267.564,4245.769,4255.641,4252.821,4268.205,4454.872,4465.641,4385.0,4424.744
2024-07-03 15:44:06.389000,4285.128,4257.564,4311.026,4326.026,4270.641,4277.564,4263.077,4257.051,4250.897,4242.179,4458.205,4471.026,4344.872,4411.41
2024-07-03 15:44:06.396800,4283.205,4257.692,4303.59,4281.795,4291.667,4282.308,4261.026,4254.359,4273.077,4252.436,4463.205,4457.949,4328.846,4393.59
2024-07-03 15:44:06.404700,4294.103,4289.872,4305.385,4280.256,4283.205,4273.846,4251.026,4257.821,4274.744,4264.231,4448.333,4451.154,4352.821,4399.103
2024-07-03 15:44:06.412600,4306.026,4297.564,4315.641,4323.205,4258.077,4276.923,4262.821,4270.641,4268.333,4262.179,4456.026,4471.026,4362.051,4434.872
2024-07-03 15:44:06.420500,4304.231,4278.462,4318.718,4326.154,4257.051,4278.462,4263.718,4267.821,4270.385,4272.436,4466.667,4472.564,4350.128,4437.564
2024-07-03 15:44:06.428300,4291.41,4267.051,4308.462,4295.0,4267.308,4267.564,4246.026,4251.026,4262.308,4254.103,4435.0,4447.179,4331.795,4404.231
2024-07-03 15:44:06.436200,4279.872,4260.385,4294.744,4279.231,4285.0,4264.487,4243.846,4246.538,4256.538,4210.385,4417.436,4440.128,4314.231,4391.538
2024-07-03 15:44:06.444000,4286.923,4270.0,4299.744,4289.872,4282.051,4269.872,4254.744,4257.564,4273.974,4230.385,4450.897,4455.256,4325.769,4403.077
2024-07-03 15:44:06.451700,4293.077,4283.59,4299.103,4304.359,4256.282,4264.744,4246.667,4257.692,4274.872,4280.385,4450.0,4450.769,4342.308,4399.487
2024-07-03 15:44:06.459500,4276.538,4259.231,4277.821,4288.59,4245.641,4255.128,4229.744,4241.026,4247.821,4265.128,4422.051,4429.359,4324.103,4386.923
2024-07-03 15:44:06.467200,4273.205,4247.692,4278.077,4265.769,4257.308,4258.846,4232.051,4242.692,4246.667,4226.41,4438.974,4434.231,4321.667,4395.897
2024-07-03 15:44:06.475000,4286.41,4267.564,4309.103,4286.154,4266.026,4271.154,4251.026,4260.641,4270.128,4226.154,4447.564,4463.846,4348.333,4412.436
2024-07-03 15:44:06.482700,4282.692,4259.103,4311.282,4304.231,4263.462,4270.128,4252.179,4258.205,4271.41,4249.872,4425.385,4469.744,4344.615,4406.154
2024-07-03 15:44:06.490600,4278.077,4253.846,4286.282,4287.436,4277.436,4266.154,4245.641,4250.385,4264.487,4268.718,4428.846,4447.564,4332.564,4392.436
2024-07-03 15:44:06.498400,4282.308,4268.974,4282.821,4269.615,4277.179,4275.769,4251.154,4257.821,4261.41,4248.718,4447.179,4434.487,4339.487,4393.462
2024-07-03 15:44:06.506300,4278.974,4262.949,4298.205,4276.154,4249.487,4280.513,4253.718,4266.026,4255.513,4223.718,4453.974,4447.949,4340.128,4397.436
2024-07-03 15:44:06.514200,4277.821,4260.513,4307.051,4295.256,4250.256,4275.897,4257.949,4274.872,4265.641,4248.077,4464.487,4471.154,4344.231,4402.051
2024-07-03 15:44:06.522000,4279.103,4268.59,4302.179,4291.538,4286.41,4280.256,4266.154,4278.205,4279.744,4272.308,4464.487,4471.795,4351.667,4417.821
2024-07-03 15:44:06.529700,4278.462,4255.128,4300.897,4273.974,4291.923,4281.538,4262.436,4270.897,4275.513,4247.564,4445.641,4464.103,4337.436,4419.231
2024-07-03 15:44:06.537600,4289.231,4261.538,4310.0,4290.385,4272.821,4274.615,4258.846,4270.0,4276.923,4242.051,4447.179,4472.179,4338.077,4411.795
2024-07-03 15:44:06.545400,4298.974,4294.231,4314.359,4316.667,4281.026,4277.821,4265.897,4278.205,4284.744,4264.359,4470.0,4478.077,4362.949,4420.641
2024-07-03 15:44:06.553200,4292.949,4281.538,4304.872,4302.436,4263.718,4279.872,4265.513,4280.128,4272.564,4246.538,4472.564,4466.41,4349.487,4416.538
2024-07-03 15:44:06.560900,4296.282,4260.513,4302.179,4284.359,4251.154,4282.308,4262.949,4275.385,4269.744,4235.897,4456.282,4462.308,4328.205,4402.436
2024-07-03 15:44:06.568700,4301.026,4278.846,4310.256,4297.179,4288.462,4289.487,4268.462,4272.051,4283.974,4274.359,4455.128,4471.026,4348.205,4406.026
2024-07-03 15:44:06.576400,4285.385,4283.974,4315.641,4309.103,4295.769,4283.974,4264.487,4271.026,4277.821,4287.692,4470.641,4475.897,4356.923,4420.0
2024-07-03 15:44:06.584300,4275.385,4275.385,4308.077,4306.923,4273.718,4273.718,4257.051,4268.846,4262.821,4252.949,4467.308,4471.026,4336.795,4418.59
2024-07-03 15:44:06.592100,4289.744,4279.231,4301.282,4292.308,4272.692,4276.154,4258.974,4263.846,4262.308,4232.436,4445.513,4465.0,4338.333,4411.026
2024-07-03 15:44:06.600000,4299.744,4284.615,4312.821,4292.308,4285.256,4286.026,4263.846,4265.128,4264.744,4232.308,4446.282,4470.256,4349.359,4416.795
2024-07-03 15:44:06.607900,4287.564,4275.641,4309.231,4306.41,4271.026,4279.872,4260.769,4266.923,4255.0,4231.026,4462.692,4466.026,4338.718,4410.0
2024-07-03 15:44:06.615800,4278.333,4260.0,4293.718,4303.462,4234.231,4271.026,4260.769,4268.333,4259.359,4250.0,4461.026,4455.769,4330.0,4396.795
2024-07-03 15:44:06.623700,4293.59,4271.026,4302.949,4293.974,4238.974,4283.333,4271.538,4282.308,4283.846,4270.641,4458.077,4470.897,4338.846,4408.846
2024-07-03 15:44:06.631500,4299.744,4289.231,4310.128,4285.897,4287.564,4291.154,4270.769,4281.795,4275.0,4252.436,4458.846,4476.923,4351.795,4420.385
2024-07-03 15:44:06.639300,4281.538,4271.41,4293.974,4276.923,4295.769,4278.333,4253.59,4259.744,4242.821,4221.026,4440.385,4453.718,4346.282,4405.769
2024-07-03 15:44:06.647000,4280.256,4263.846,4291.538,4284.615,4270.256,4276.667,4253.333,4261.282,4252.051,4235.0,4433.718,4449.231,4325.385,4401.795
2024-07-03 15:44:06.654800,4284.872,4284.872,4300.128,4296.282,4250.128,4279.744,4260.128,4276.154,4273.077,4253.333,4450.769,4461.154,4321.026,4415.897
2024-07-03 15:44:06.662500,4271.667,4271.41,4294.103,4292.949,4231.795,4267.564,4248.846,4270.513,4259.615,4237.436,4446.154,4457.949,4334.103,4406.795
2024-07-03 15:44:06.670300,4277.821,4256.026,4293.462,4291.154,4252.564,4268.205,4247.051,4261.923,4252.564,4241.538,4445.128,4453.846,4350.385,4387.179
2024-07-03 15:44:06.678000,4299.231,4285.385,4306.667,4297.051,4302.436,4284.872,4266.41,4274.103,4274.359,4267.564,4451.667,4463.59,4368.59,4399.615
2024-07-03 15:44:06.685800,4297.308,4296.41,4310.128,4295.513,4301.154,4284.744,4269.744,4285.513,4283.205,4249.744,4429.359,4474.872,4350.128,4423.718
2024-07-03 15:44:06.693500,4297.436,4271.282,4307.308,4290.385,4257.692,4274.744,4257.436,4280.0,4269.359,4221.538,4438.462,4476.923,4318.59,4430.0
2024-07-03 15:44:06.701400,4310.897,4277.051,4318.205,4304.103,4240.897,4278.333,4263.718,4283.974,4277.564,4262.179,4493.718,4480.513,4356.282,4438.974
2024-07-03 15:44:06.709300,4302.564,4298.59,4320.897,4321.282,4261.795,4284.231,4268.462,4290.769,4294.615,4296.795,4494.359,4478.205,4400.769,4439.487
2024-07-03 15:44:06.717100,4286.282,4285.769,4300.513,4302.436,4290.385,4279.103,4254.487,4271.026,4272.179,4252.564,4443.718,4459.487,4366.667,4407.308
2024-07-03 15:44:06.724800,4298.077,4276.795,4301.41,4286.667,4302.949,4283.59,4250.128,4257.308,4252.179,4220.513,4447.949,4460.128,4333.846,4405.128
2024-07-03 15:44:06.732600,4327.436,4297.179,4331.282,4315.385,4294.487,4294.103,4266.538,4280.0,4273.077,4253.333,4487.949,4493.846,4355.513,4454.359
2024-07-03 15:44:06.740300,4336.282,4307.179,4336.795,4334.487,4274.615,4285.513,4268.59,4288.333,4275.897,4276.667,4482.564,4499.872,4377.821,4458.974
2024-07-03 15:44:06.748100,4308.718,4292.821,4309.872,4309.872,4260.897,4273.462,4248.59,4256.667,4239.744,4249.487,4454.744,4461.667,4371.795,4415.641
2024-07-03 15:44:06.755800,4291.41,4283.59,4299.103,4290.897,4270.0,4278.077,4246.923,4254.615,4231.282,4224.231,4452.051,4451.026,4348.974,4415.513
2024-07-03 15:44:06.763700,4317.308,4280.385,4320.0,4304.103,4280.641,4285.0,4264.359,4283.718,4263.846,4237.179,4471.795,4481.026,4339.359,4449.359
2024-07-03 15:44:06.771500,4333.974,4276.795,4338.59,4325.897,4287.308,4287.436,4268.974,4289.103,4288.718,4273.462,4490.641,4499.744,4367.179,4459.231
2024-07-03 15:44:06.779400,4323.59,4293.205,4332.821,4331.026,4293.205,4284.744,4261.41,4283.462,4296.282,4302.308,4497.051,4492.051,4393.205,4446.923
2024-07-03 15:44:06.787200,4327.436,4318.974,4325.897,4324.487,4285.256,4281.026,4258.077,4287.949,4295.513,4295.769,4488.333,4480.897,4386.282,4434.487
2024-07-03 15:44:06.795100,4329.487,4326.154,4329.103,4328.59,4276.154,4284.103,4257.949,4285.641,4283.974,4266.923,4476.667,4478.718,4374.872,4432.179
2024-07-03 15:44:06.802900,4313.462,4312.821,4323.333,4331.154,4274.744,4284.615,4260.256,4277.179,4278.205,4256.538,4475.641,4480.256,4364.103,4444.103
2024-07-03 15:44:06.810900,4308.59,4297.179,4311.923,4313.462,4273.077,4280.897,4258.333,4275.513,4283.333,4265.769,4472.564,4476.667,4351.667,4447.564
2024-07-03 15:44:06.818700,4310.0,4293.974,4309.103,4301.41,4279.103,4286.667,4250.641,4275.256,4274.744,4260.513,4458.59,4469.359,4356.538,4424.231
2024-07-03 15:44:06.826400,4293.718,4300.897,4309.487,4317.692,4279.103,4292.179,4252.436,4273.59,4266.41,4255.128,4452.821,4468.205,4355.641,4409.872
2024-07-03 15:44:06.834200,4284.487,4303.846,4306.282,4309.872,4247.051,4280.769,4255.897,4266.41,4272.051,4267.051,4455.769,4464.359,4335.769,4425.128
2024-07-03 15:44:06.841900,4291.667,4303.205,4297.436,4275.641,4230.769,4272.179,4247.821,4257.179,4265.0,4268.333,4454.615,4452.179,4350.385,4429.487
2024-07-03 15:44:06.849700,4287.821,4309.231,4284.872,4283.974,4250.128,4283.974,4245.769,4262.692,4260.0,4253.462,4455.897,4447.949,4381.538,4415.128
2024-07-03 15:44:06.857400,4275.385,4306.026,4277.821,4308.205,4262.051,4292.949,4254.231,4268.462,4264.231,4231.923,4457.949,4457.821,4358.205,4410.385
2024-07-03 15:44:06.865200,4281.026,4304.103,4279.615,4295.513,4265.128,4284.359,4248.59,4266.538,4253.59,4230.769,4453.59,4456.41,4344.872,4414.615
2024-07-03 15:44:06.872900,4289.744,4311.41,4281.923,4301.282,4259.231,4273.077,4233.077,4261.795,4248.205,4252.949,4456.667,4439.872,4366.923,4409.872
2024-07-03 15:44:06.880700,4273.718,4299.231,4276.667,4323.333,4250.256,4272.949,4229.744,4253.974,4259.872,4254.359,4463.974,4432.564,4353.846,4412.821
2024-07-03 15:44:06.888400,4269.615,4287.051,4275.513,4291.923,4254.744,4274.103,4236.026,4251.795,4264.615,4248.718,4456.538,4438.59,4338.974,4428.974
2024-07-03 15:44:06.896200,4298.462,4306.923,4295.256,4269.615,4256.282,4274.359,4241.026,4261.41,4261.154,4258.205,4460.256,4452.051,4364.487,4431.026
2024-07-03 15:44:06.904000,4316.282,4332.692,4316.026,4310.769,4253.462,4285.256,4253.462,4275.641,4264.744,4244.744,4482.949,4467.949,4375.256,4429.872
2024-07-03 15:44:06.911800,4308.462,4336.154,4308.718,4332.949,4270.256,4289.744,4261.154,4278.333,4269.872,4222.821,4479.103,4465.641,4348.077,4433.718
2024-07-03 15:44:06.919500,4297.821,4323.718,4296.795,4312.436,4287.436,4283.59,4253.59,4268.974,4275.128,4251.538,4452.436,4450.0,4345.513,4415.128
2024-07-03 15:44:06.927400,4289.872,4307.821,4303.462,4302.821,4278.077,4279.103,4252.179,4258.333,4263.462,4277.436,4448.205,4447.179,4364.744,4396.282
2024-07-03 15:44:06.935200,4296.795,4313.205,4313.205,4313.333,4281.026,4285.385,4261.41,4266.282,4247.436,4247.564,4462.179,4462.564,4360.641,4426.538
2024-07-03 15:44:06.943100,4311.538,4330.0,4319.359,4324.487,4276.538,4287.949,4267.051,4286.923,4261.923,4222.179,4464.872,4478.205,4342.308,4450.128
2024-07-03 15:44:06.950900,4298.462,4322.564,4317.692,4314.359,4251.667,4281.154,4263.333,4284.487,4280.513,4237.308,4459.231,4474.103,4340.897,4422.179
2024-07-03 15:44:06.958800,4278.205,4309.744,4300.897,4290.128,4260.256,4278.846,4255.769,4267.949,4269.872,4256.026,4459.103,4451.41,4354.872,4401.795
2024-07-03 15:44:06.966600,4273.205,4307.308,4286.41,4285.769,4274.487,4277.821,4247.436,4263.077,4249.872,4246.795,4458.974,4437.692,4354.487,4402.949
2024-07-03 15:44:06.974500,4277.564,4307.949,4295.897,4292.821,4254.615,4278.205,4249.744,4263.462,4246.282,4228.205,4451.667,4446.538,4338.974,4399.359
2024-07-03 15:44:06.982300,4288.333,4310.385,4309.487,4300.256,4259.487,4282.692,4260.0,4266.026,4254.487,4231.154,4443.59,4461.41,4335.769,4410.0
2024-07-03 15:44:06.990200,4289.231,4308.59,4301.667,4309.744,4290.641,4283.974,4258.846,4273.205,4275.641,4248.462,4454.615,4465.513,4355.641,4433.077
2024-07-03 15:44:06.998000,4278.333,4307.179,4291.667,4304.615,4268.974,4271.923,4249.359,4269.872,4287.692,4258.077,4478.205,4456.923,4367.436,4432.179
2024-07-03 15:44:07.006000,4280.0,4307.564,4296.154,4290.128,4244.872,4262.308,4244.231,4260.769,4265.641,4254.231,4476.795,4452.564,4357.949,4414.615
2024-07-03 15:44:07.013800,4286.026,4305.256,4296.667,4294.487,4268.333,4271.026,4246.026,4261.795,4241.026,4232.564,4464.231,4459.359,4356.41,4403.846
2024-07-03 15:44:07.021700,4280.897,4307.949,4293.718,4296.41,4265.513,4277.564,4245.769,4264.103,4238.718,4217.179,4458.59,4459.744,4339.744,4410.385
2024-07-03 15:44:07.029500,4283.462,4314.615,4305.641,4295.641,4249.103,4276.538,4249.615,4271.026,4255.513,4236.538,4445.385,4462.692,4318.077,4430.897
2024-07-03 15:44:07.037200,4285.897,4300.0,4308.974,4315.256,4266.795,4277.179,4261.154,4276.154,4267.692,4253.333,4444.872,4461.667,4338.718,4420.128
2024-07-03 15:44:07.045000,4273.718,4288.077,4290.641,4309.103,4280.0,4278.333,4262.436,4266.923,4260.897,4245.385,4461.154,4443.462,4371.154,4383.59
2024-07-03 15:44:07.052700,4275.513,4309.744,4289.103,4295.769,4282.308,4278.59,4259.103,4263.59,4257.051,4242.821,4470.385,4445.385,4373.718,4392.051
2024-07-03 15:44:07.060600,4292.051,4321.154,4306.41,4303.846,4275.897,4279.615,4257.564,4269.231,4266.667,4246.026,4473.462,4471.41,4350.641,4432.308
2024-07-03 15:44:07.068400,4297.051,4310.641,4308.974,4305.128,4251.538,4278.205,4254.615,4265.641,4263.974,4251.795,4473.333,4470.513,4338.974,4432.949
2024-07-03 15:44:07.076300,4292.821,4308.718,4303.333,4297.436,4258.974,4279.744,4256.795,4260.769,4258.333,4272.436,4458.077,4454.744,4362.051,4414.359
2024-07-03 15:44:07.084100,4298.718,4303.077,4310.513,4300.769,4284.615,4280.641,4255.385,4262.692,4267.949,4271.41,4450.513,4461.026,4381.026,4410.769
2024-07-03 15:44:07.091900,4299.359,4299.103,4313.59,4306.923,4276.41,4274.744,4248.974,4264.744,4259.872,4240.256,4467.051,4467.051,4368.205,4413.846
2024-07-03 15:44:07.099700,4284.744,4302.949,4299.615,4293.462,4267.179,4272.949,4252.692,4265.128,4237.949,4235.0,4471.667,4460.0,4343.333,4430.641
2024-07-03 15:44:07.107600,4277.564,4295.769,4289.744,4288.462,4278.718,4276.667,4259.615,4267.949,4250.128,4252.051,4463.974,4459.231,4340.769,4433.846
2024-07-03 15:44:07.115400,4295.897,4294.615,4304.487,4304.744,4282.821,4285.256,4265.769,4283.974,4285.128,4272.692,4473.974,4474.744,4373.333,4417.949
2024-07-03 15:44:07.123200,4321.282,4314.231,4326.667,4318.333,4282.692,4294.744,4277.564,4298.974,4287.308,4288.59,4490.128,4490.128,4400.385,4423.718
2024-07-03 15:44:07.130900,4317.436,4306.538,4323.718,4307.949,4274.872,4292.564,4278.333,4294.231,4266.41,4264.359,4481.923,4483.718,4370.256,4427.051
2024-07-03 15:44:07.138800,4281.538,4274.744,4299.487,4286.795,4252.949,4275.897,4254.487,4275.897,4265.641,4240.256,4461.795,4462.051,4324.103,4408.462
2024-07-03 15:44:07.146600,4254.103,4273.846,4284.744,4283.077,4254.487,4266.923,4238.333,4258.077,4264.359,4250.641,4447.821,4444.487,4331.154,4395.128
2024-07-03 15:44:07.154400,4274.359,4303.333,4295.0,4297.051,4275.256,4285.0,4254.872,4263.333,4261.282,4263.974,4450.385,4449.615,4371.026,4395.769
2024-07-03 15:44:07.162100,4302.051,4315.128,4308.077,4309.615,4276.154,4294.872,4268.974,4281.026,4277.436,4264.744,4469.487,4466.282,4375.256,4415.641
2024-07-03 15:44:07.170000,4285.128,4291.795,4301.667,4298.462,4259.744,4272.949,4252.821,4273.59,4279.615,4265.769,4468.974,4464.615,4343.205,4428.205
2024-07-03 15:44:07.177800,4265.513,4274.744,4291.154,4283.462,4262.436,4265.513,4242.949,4259.231,4258.718,4265.0,4457.179,4452.179,4350.256,4394.872
2024-07-03 15:44:07.185700,4275.513,4298.077,4294.359,4290.769,4263.333,4281.667,4256.795,4266.795,4257.692,4256.026,4458.077,4457.436,4375.513,4377.436
2024-07-03 15:44:07.193500,4285.385,4313.718,4301.026,4308.974,4228.333,4276.026,4255.641,4270.769,4266.026,4249.359,4459.359,4468.205,4352.308,4415.256
2024-07-03 15:44:07.201500,4288.077,4296.41,4298.077,4309.872,4217.436,4268.846,4242.692,4261.154,4260.0,4245.769,4464.103,4460.385,4335.513,4424.744
2024-07-03 15:44:07.209300,4294.231,4294.744,4297.692,4288.205,4264.103,4287.692,4248.974,4265.897,4265.385,4250.0,4471.923,4454.872,4361.026,4401.795
2024-07-03 15:44:07.217000,4287.564,4314.487,4293.333,4273.974,4290.256,4289.487,4253.846,4271.41,4274.103,4245.385,4461.667,4457.051,4365.513,4407.179
2024-07-03 15:44:07.224800,4271.154,4310.385,4283.077,4289.487,4268.59,4276.026,4247.949,4266.538,4266.282,4241.41,4455.641,4452.179,4350.769,4419.103
2024-07-03 15:44:07.232500,4268.333,4283.462,4284.103,4306.41,4258.59,4280.128,4249.872,4263.718,4253.077,4253.205,4455.513,4443.333,4362.821,4411.282
2024-07-03 15:44:07.240300,4276.282,4278.846,4285.641,4301.923,4247.308,4272.692,4247.436,4253.718,4242.308,4230.641,4429.359,4435.769,4349.744,4395.385
2024-07-03 15:44:07.248000,4282.692,4299.615,4279.872,4297.949,4222.179,4256.41,4240.769,4244.872,4248.077,4210.641,4430.897,4435.256,4318.59,4391.923
2024-07-03 15:44:07.255800,4286.154,4303.333,4287.949,4278.974,4245.641,4269.359,4249.872,4257.308,4266.923,4250.0,4468.462,4445.0,4345.513,4407.179
2024-07-03 15:44:07.263500,4303.077,4304.744,4307.692,4276.923,4296.41,4292.692,4270.128,4281.923,4280.128,4280.256,4485.641,4469.359,4391.154,4425.641
2024-07-03 15:44:07.271300,4316.795,4322.051,4305.897,4327.179,4287.564,4292.051,4275.256,4291.41,4278.333,4258.718,4486.282,4479.615,4378.462,4441.026
2024-07-03 15:44:07.279000,4301.41,4318.59,4292.436,4343.462,4262.308,4288.718,4268.974,4286.41,4280.513,4254.872,4476.538,4468.205,4361.026,4442.308
2024-07-03 15:44:07.286800,4286.538,4296.026,4292.692,4298.462,4270.385,4292.692,4266.538,4283.077,4285.385,4269.487,4452.051,4456.154,4381.667,4420.256
2024-07-03 15:44:07.294600,4288.846,4292.564,4295.897,4275.513,4252.436,4284.744,4258.718,4279.744,4272.564,4253.718,4451.538,4448.846,4371.282,4398.974
2024-07-03 15:44:07.302400,4293.846,4299.872,4292.692,4295.256,4236.282,4274.359,4248.077,4279.872,4257.564,4248.333,4479.231,4452.564,4347.436,4412.564
2024-07-03 15:44:07.310100,4308.846,4299.615,4301.026,4304.103,4269.615,4276.154,4250.513,4283.077,4260.513,4274.231,4485.385,4468.718,4369.359,4437.051
2024-07-03 15:44:07.317900,4315.641,4291.026,4313.59,4298.59,4283.333,4274.744,4252.821,4274.615,4269.744,4274.231,4470.513,4468.59,4378.59,4426.154
2024-07-03 15:44:07.325600,4297.692,4283.077,4304.487,4298.718,4256.026,4269.103,4245.256,4263.333,4268.077,4245.385,4459.103,4453.462,4353.462,4412.436
2024-07-03 15:44:07.333400,4291.538,4291.667,4291.41,4302.949,4261.795,4280.128,4255.897,4270.513,4269.359,4256.282,4463.59,4453.462,4352.821,4426.538
2024-07-03 15:44:07.341100,4293.846,4296.154,4285.769,4301.026,4275.769,4284.615,4266.667,4275.897,4264.103,4279.103,4468.846,4455.0,4368.718,4435.385
2024-07-03 15:44:07.349000,4280.385,4271.282,4270.513,4276.923,4250.513,4264.615,4242.564,4261.41,4246.282,4251.026,4441.41,4437.821,4350.256,4409.231
2024-07-03 15:44:07.356800,4272.949,4261.026,4258.333,4261.795,4239.487,4260.128,4224.103,4255.128,4247.692,4231.795,4421.538,4423.59,4322.051,4374.231
2024-07-03 15:44:07.364700,4277.436,4278.462,4273.462,4278.462,4252.949,4269.872,4243.974,4268.333,4266.154,4253.205,4446.795,4429.872,4323.974,4380.641
2024-07-03 15:44:07.372500,4281.026,4278.846,4291.282,4291.282,4253.974,4267.179,4265.897,4280.769,4268.846,4261.154,4465.769,4450.385,4347.949,4417.564
2024-07-03 15:44:07.380400,4296.41,4275.769,4294.487,4288.59,4254.359,4273.462,4265.385,4292.949,4261.667,4262.821,4465.385,4464.615,4372.821,4432.051
2024-07-03 15:44:07.388200,4298.59,4288.974,4297.564,4293.974,4259.359,4285.769,4264.359,4295.256,4273.846,4283.974,4470.385,4462.821,4380.128,4414.744
2024-07-03 15:44:07.396200,4277.051,4291.154,4295.385,4300.513,4258.462,4279.872,4271.538,4284.872,4283.974,4275.256,4468.077,4464.487,4350.128,4409.872
2024-07-03 15:44:07.404000,4287.692,4275.641,4296.282,4283.462,4272.436,4282.821,4279.872,4286.154,4274.487,4251.538,4471.154,4477.949,4326.41,4421.538
2024-07-03 15:44:07.411900,4312.949,4272.821,4309.744,4270.128,4280.513,4295.256,4279.615,4292.564,4278.333,4272.949,4474.231,4480.641,4358.333,4424.615
2024-07-03 15:44:07.419700,4295.897,4281.538,4305.0,4286.923,4249.103,4283.974,4270.385,4279.615,4280.256,4285.385,4450.769,4464.744,4377.564,4426.923
2024-07-03 15:44:07.427400,4268.333,4275.513,4281.795,4299.103,4247.179,4275.513,4261.41,4255.128,4243.462,4239.744,4438.846,4443.846,4330.897,4423.718
2024-07-03 15:44:07.435200,4268.59,4261.795,4273.59,4282.436,4274.103,4285.897,4256.923,4243.205,4214.744,4211.154,4446.667,4430.897,4298.59,4407.051
2024-07-03 15:44:07.442900,4268.718,4260.256,4275.256,4263.974,4270.128,4287.564,4260.513,4249.103,4243.205,4239.103,4431.667,4431.154,4312.564,4390.513
2024-07-03 15:44:07.450700,4279.359,4282.949,4288.077,4275.385,4267.308,4291.282,4274.615,4278.718,4284.744,4264.231,4443.333,4463.846,4332.821,4400.0
2024-07-03 15:44:07.458400,4310.385,4302.436,4315.513,4308.974,4266.41,4297.949,4282.821,4307.436,4295.256,4285.0,4498.205,4500.256,4356.154,4433.205
2024-07-03 15:44:07.466200,4308.205,4288.205,4315.641,4323.718,4245.256,4282.949,4273.718,4298.718,4284.744,4302.436,4489.359,4488.974,4365.0,4447.949
2024-07-03 15:44:07.473900,4295.641,4273.846,4308.59,4299.487,4268.846,4275.0,4275.0,4289.359,4278.974,4276.026,4454.103,4480.385,4353.59,4452.051
2024-07-03 15:44:07.481800,4309.359,4282.564,4322.564,4274.744,4301.41,4288.846,4284.872,4297.821,4284.487,4252.564,4480.256,4495.128,4361.282,4454.359
2024-07-03 15:44:07.489700,4311.026,4299.487,4308.333,4291.282,4258.846,4287.821,4274.487,4290.256,4280.513,4267.821,4491.154,4476.026,4364.231,4428.59
2024-07-03 15:44:07.497600,4294.487,4298.59,4274.359,4303.205,4220.513,4270.513,4255.513,4269.872,4263.718,4261.026,4462.179,4446.282,4335.769,4403.974
2024-07-03 15:44:07.505400,4291.538,4272.692,4277.051,4286.795,4249.744,4269.615,4259.103,4272.308,4257.436,4239.615,4457.308,4455.897,4333.718,4423.974
2024-07-03 15:44:07.513300,4292.308,4263.462,4291.41,4286.41,4275.256,4286.154,4277.949,4283.462,4262.436,4251.41,4448.846,4464.359,4358.974,4439.487
2024-07-03 15:44:07.521100,4281.923,4275.0,4288.205,4280.128,4278.333,4297.308,4280.256,4282.179,4261.282,4266.282,4435.897,4446.154,4346.154,4412.308
2024-07-03 15:44:07.529000,4277.564,4266.538,4279.103,4260.513,4259.615,4283.462,4266.154,4276.923,4260.897,4248.59,4452.051,4433.59,4305.641,4393.846
2024-07-03 15:44:07.536800,4280.513,4250.897,4270.0,4275.769,4227.692,4264.103,4258.846,4274.487,4267.179,4224.359,4438.718,4432.949,4303.333,4389.487
2024-07-03 15:44:07.544700,4277.692,4255.0,4266.923,4288.974,4242.179,4271.795,4261.538,4275.0,4255.897,4237.949,4417.821,4439.487,4332.949,4392.179
2024-07-03 15:44:07.552500,4264.872,4254.744,4267.692,4265.513,4282.436,4282.051,4259.872,4273.59,4243.462,4263.846,4443.718,4443.205,4344.231,4408.718
2024-07-03 15:44:07.560400,4262.564,4254.872,4270.128,4258.462,4276.026,4275.0,4259.872,4275.256,4266.154,4252.692,4452.179,4441.41,4333.205,4409.744
2024-07-03 15:44:07.568200,4285.256,4264.744,4289.615,4267.692,4250.513,4276.026,4266.667,4281.923,4286.41,4241.538,4453.718,4456.154,4336.026,4411.923
2024-07-03 15:44:07.576100,4305.897,4262.564,4306.667,4283.205,4257.821,4284.103,4266.923,4280.769,4269.615,4252.564,4486.667,4475.513,4355.641,4435.256
2024-07-03 15:44:07.583900,4303.974,4273.333,4296.667,4313.205,4269.615,4279.615,4263.333,4278.59,4258.846,4246.795,4483.205,4470.641,4370.769,4434.359
2024-07-03 15:44:07.591900,4295.0,4285.897,4289.359,4308.333,4263.974,4277.949,4262.949,4281.154,4270.128,4246.538,4454.487,4453.333,4366.026,4411.538
2024-07-03 15:44:07.599700,4292.564,4262.692,4304.872,4288.974,4273.59,4288.333,4271.154,4277.308,4264.744,4253.333,4457.564,4462.821,4343.59,4432.949
2024-07-03 15:44:07.607400,4308.462,4258.59,4317.051,4293.462,4289.231,4292.179,4282.179,4277.436,4261.538,4244.872,4463.205,4494.615,4350.385,4462.308
2024-07-03 15:44:07.615200,4319.615,4276.923,4308.718,4288.846,4272.436,4277.179,4273.718,4278.718,4268.718,4246.795,4467.564,4488.974,4382.179,4431.538
2024-07-03 15:44:07.622900,4301.282,4258.974,4296.538,4286.154,4241.923,4264.103,4257.564,4269.103,4255.641,4238.846,4479.872,4450.641,4378.333,4401.41
2024-07-03 15:44:07.630700,4293.205,4247.949,4302.051,4301.667,4262.179,4275.897,4266.026,4268.974,4243.846,4221.923,4481.026,4451.667,4345.769,4431.154
2024-07-03 15:44:07.638400,4313.718,4276.026,4314.872,4305.0,4298.59,4297.436,4288.718,4280.128,4255.0,4248.846,4485.0,4487.179,4344.103,4460.513
2024-07-03 15:44:07.646200,4317.692,4278.077,4320.128,4300.256,4296.41,4301.41,4297.436,4285.0,4268.077,4277.308,4493.333,4497.051,4373.718,4441.41
2024-07-03 15:44:07.653900,4300.385,4246.538,4310.897,4300.256,4279.359,4282.308,4283.462,4276.41,4266.41,4244.744,4482.051,4470.641,4378.846,4403.59
2024-07-03 15:44:07.661700,4298.59,4241.667,4299.872,4299.103,4259.103,4267.949,4264.744,4265.385,4260.385,4216.538,4466.795,4456.026,4352.564,4406.282
2024-07-03 15:44:07.669400,4310.256,4268.718,4308.974,4293.077,4261.154,4285.769,4270.641,4270.256,4260.769,4239.103,4482.436,4478.59,4347.179,4451.41
2024-07-03 15:44:07.677200,4307.051,4282.692,4320.513,4288.974,4295.385,4299.231,4283.59,4284.744,4265.0,4256.923,4507.179,4496.795,4373.718,4463.846
2024-07-03 15:44:07.685000,4298.974,4261.41,4315.897,4300.641,4287.692,4284.487,4277.051,4281.282,4268.333,4253.59,4508.59,4482.692,4387.051,4427.308
2024-07-03 15:44:07.692900,4303.077,4256.923,4316.026,4313.205,4258.333,4276.538,4273.974,4270.769,4266.154,4254.744,4508.462,4473.718,4395.513,4416.923
2024-07-03 15:44:07.700700,4310.513,4292.436,4327.436,4311.41,4284.103,4282.179,4280.128,4280.0,4264.615,4253.59,4510.769,4487.692,4393.333,4452.051
2024-07-03 15:44:07.708600,4312.564,4291.282,4325.897,4323.333,4303.205,4278.462,4280.0,4284.231,4270.128,4239.231,4484.744,4492.308,4357.564,4456.282
2024-07-03 15:44:07.716400,4312.821,4252.821,4319.103,4322.692,4273.974,4275.128,4281.026,4272.564,4271.538,4239.359,4465.256,4476.41,4344.359,4418.59
2024-07-03 15:44:07.724300,4312.051,4254.872,4325.769,4294.615,4271.667,4278.462,4280.769,4273.462,4265.128,4250.0,4500.897,4473.59,4366.795,4423.205
2024-07-03 15:44:07.732100,4306.154,4278.205,4326.538,4300.897,4274.872,4278.077,4272.564,4283.077,4260.385,4244.744,4529.744,4487.179,4371.795,4460.641
2024-07-03 15:44:07.740000,4291.667,4262.179,4312.692,4317.308,4255.256,4277.692,4271.538,4275.385,4260.385,4239.103,4501.538,4482.692,4367.692,4438.974
2024-07-03 15:44:07.747800,4293.718,4249.487,4314.615,4306.795,4274.615,4278.077,4278.205,4271.41,4267.564,4244.487,4497.308,4475.641,4374.359,4407.308
2024-07-03 15:44:07.755700,4324.615,4280.513,4336.154,4322.564,4298.718,4278.718,4280.897,4287.564,4274.103,4249.615,4540.641,4496.795,4369.615,4463.846
2024-07-03 15:44:07.763500,4338.205,4292.821,4339.744,4345.769,4273.718,4282.564,4281.026,4287.179,4260.256,4248.077,4537.308,4504.103,4385.128,4488.59
2024-07-03 15:44:07.771400,4291.667,4263.846,4313.077,4325.641,4247.436,4270.385,4274.103,4263.974,4239.615,4236.667,4483.333,4473.59,4399.103,4417.821
2024-07-03 15:44:07.779200,4266.923,4260.256,4301.795,4304.103,4279.359,4263.333,4273.077,4256.282,4249.744,4238.205,4483.846,4464.615,4381.41,4397.179
2024-07-03 15:44:07.787000,4310.513,4292.692,4319.359,4310.513,4301.41,4275.256,4283.974,4270.256,4272.179,4247.949,4531.41,4484.359,4369.103,4445.897
2024-07-03 15:44:07.794800,4329.103,4280.641,4328.846,4326.026,4251.795,4269.359,4274.487,4275.769,4268.077,4239.872,4524.359,4485.513,4359.615,4450.128
2024-07-03 15:44:07.802500,4298.462,4257.051,4317.564,4326.923,4226.154,4251.923,4253.077,4264.359,4251.41,4240.256,4492.821,4475.641,4361.282,4421.154
2024-07-03 15:44:07.810300,4299.615,4281.667,4323.077,4311.667,4277.308,4258.718,4264.231,4260.769,4247.692,4251.538,4515.897,4487.308,4383.462,4430.513
2024-07-03 15:44:07.818000,4325.385,4292.308,4337.564,4312.692,4317.564,4272.692,4283.462,4274.103,4248.846,4245.641,4532.821,4506.154,4382.051,4456.538
2024-07-03 15:44:07.825800,4309.744,4280.0,4322.949,4325.385,4295.128,4265.769,4269.103,4282.436,4252.051,4251.923,4492.179,4499.231,4352.821,4442.179
2024-07-03 15:44:07.833500,4278.974,4291.282,4310.128,4326.154,4265.128,4255.897,4257.692,4275.769,4260.385,4272.949,4475.256,4481.538,4353.333,4411.538
2024-07-03 15:44:07.841300,4303.333,4316.282,4332.179,4333.974,4276.282,4265.128,4279.744,4274.231,4265.513,4260.641,4516.667,4496.795,4366.923,4436.538
2024-07-03 15:44:07.849000,4342.308,4321.923,4348.077,4333.077,4290.897,4277.564,4295.641,4283.462,4271.667,4254.103,4531.026,4519.359,4369.744,4462.949
2024-07-03 15:44:07.856800,4317.564,4300.513,4332.436,4318.718,4272.179,4272.436,4279.872,4287.692,4271.795,4274.872,4499.872,4509.103,4377.436,4440.0
2024-07-03 15:44:07.864500,4261.282,4272.436,4309.359,4317.949,4270.385,4260.0,4263.205,4274.231,4254.359,4263.974,4485.513,4482.821,4357.436,4419.359
2024-07-03 15:44:07.872300,4261.282,4278.333,4305.513,4314.615,4298.974,4262.179,4270.769,4261.923,4240.128,4244.359,4490.641,4473.718,4339.872,4413.718
2024-07-03 15:44:07.880000,4292.692,4305.0,4321.026,4309.359,4293.077,4266.795,4283.846,4271.41,4249.359,4264.872,4472.564,4486.41,4358.974,4416.026
2024-07-03 15:44:07.887900,4292.051,4288.974,4323.974,4322.179,4269.615,4265.256,4277.564,4282.308,4252.692,4269.359,4456.667,4495.641,4356.667,4430.769
2024-07-03 15:44:07.895600,4270.641,4273.333,4306.923,4328.205,4262.949,4259.872,4263.462,4278.462,4242.308,4242.436,4479.615,4492.179,4324.231,4425.769
2024-07-03 15:44:07.903500,4260.897,4288.846,4307.179,4323.333,4258.077,4257.564,4270.641,4277.692,4253.462,4259.359,4496.923,4489.744,4342.949,4406.154
2024-07-03 15:44:07.911300,4273.205,4288.974,4322.821,4322.051,4267.051,4270.0,4287.692,4284.359,4270.897,4297.436,4480.0,4496.026,4383.846,4418.59
2024-07-03 15:44:07.919200,4284.231,4274.359,4316.154,4300.0,4284.103,4270.0,4275.0,4278.846,4263.974,4274.872,4467.179,4493.846,4360.513,4439.231
2024-07-03 15:44:07.927000,4270.385,4272.308,4295.513,4282.821,4271.538,4251.282,4253.718,4263.59,4245.128,4235.769,4468.462,4476.795,4329.359,4431.026
2024-07-03 15:44:07.934900,4257.179,4279.744,4296.026,4307.436,4256.795,4253.718,4260.769,4258.846,4245.256,4247.949,4452.692,4467.949,4350.128,4406.923
2024-07-03 15:44:07.942700,4261.154,4273.974,4305.385,4313.59,4261.154,4267.051,4265.513,4263.718,4254.872,4260.897,4433.333,4470.385,4355.256,4390.897
2024-07-03 15:44:07.950600,4266.667,4271.795,4299.487,4298.59,4262.564,4258.846,4248.205,4264.231,4247.949,4248.333,4439.744,4469.231,4320.769,4400.0
2024-07-03 15:44:07.958400,4273.333,4290.256,4297.564,4300.385,4268.462,4254.872,4243.718,4260.256,4240.513,4250.256,4459.615,4467.821,4324.359,4420.128
2024-07-03 15:44:07.966300,4279.744,4289.359,4315.385,4306.154,4266.154,4265.385,4255.0,4260.128,4248.462,4259.359,4465.256,4476.41,4355.769,4428.462
2024-07-03 15:44:07.974100,4273.333,4260.769,4318.462,4309.231,4242.949,4255.897,4251.538,4261.026,4251.795,4257.821,4450.513,4479.103,4344.744,4423.59
2024-07-03 15:44:07.982100,4267.821,4261.282,4303.205,4311.923,4251.538,4244.487,4248.205,4264.231,4244.744,4252.436,4448.205,4472.179,4329.872,4406.923
2024-07-03 15:44:07.989900,4276.923,4300.897,4305.513,4309.872,4277.949,4253.974,4261.282,4264.615,4251.795,4251.923,4461.667,4473.846,4344.615,4400.128
2024-07-03 15:44:07.997600,4287.821,4302.051,4311.282,4305.513,4257.821,4260.513,4264.487,4259.359,4246.026,4259.359,4461.282,4476.026,4343.718,4420.897
2024-07-03 15:44:08.005400,4281.026,4270.769,4304.231,4308.974,4251.923,4257.821,4256.538,4269.615,4232.179,4275.385,4452.436,4472.051,4337.564,4433.077
2024-07-03 15:44:08.013100,4268.59,4274.487,4308.462,4308.846,4292.692,4261.282,4266.538,4294.744,4261.282,4268.59,4448.077,4480.385,4354.231,4422.564
2024-07-03 15:44:08.020900,4283.846,4296.154,4320.897,4319.103,4277.564,4265.769,4281.026,4302.949,4285.128,4237.179,4457.692,4494.231,4340.256,4421.026
2024-07-03 15:44:08.028600,4300.385,4302.821,4312.436,4333.077,4236.282,4263.974,4272.051,4285.769,4256.026,4230.256,4464.744,4484.744,4310.0,4419.103
2024-07-03 15:44:08.036400,4280.385,4294.744,4294.872,4311.667,4268.205,4264.359,4259.103,4267.692,4241.923,4248.205,4446.923,4456.795,4313.205,4397.949
2024-07-03 15:44:08.044100,4252.564,4282.308,4286.538,4298.974,4297.564,4265.256,4259.615,4263.205,4251.154,4252.564,4423.718,4442.436,4324.872,4387.564
2024-07-03 15:44:08.051900,4264.744,4286.795,4292.692,4316.923,4276.795,4267.308,4273.59,4271.795,4237.308,4241.41,4433.077,4457.949,4326.282,4412.821
2024-07-03 15:44:08.059600,4298.462,4307.692,4310.128,4320.513,4268.077,4270.128,4283.846,4284.231,4233.846,4249.103,4452.692,4476.795,4325.0,4425.641
2024-07-03 15:44:08.067500,4288.59,4304.615,4305.513,4314.615,4253.846,4262.821,4267.564,4282.179,4253.846,4244.231,4447.692,4463.462,4316.026,4396.667
2024-07-03 15:44:08.075300,4256.538,4276.026,4287.179,4324.744,4242.436,4258.718,4252.179,4274.872,4260.513,4221.026,4433.333,4450.256,4305.897,4385.128
2024-07-03 15:44:08.083300,4266.41,4269.872,4287.949,4320.897,4271.282,4264.103,4260.385,4284.359,4259.615,4230.897,4427.564,4463.205,4306.282,4408.077
2024-07-03 15:44:08.091100,4291.795,4293.846,4294.103,4305.385,4298.077,4264.615,4266.795,4295.769,4262.308,4251.795,4440.769,4471.667,4322.821,4424.231
2024-07-03 15:44:08.098900,4274.103,4300.385,4289.103,4305.513,4279.359,4260.128,4257.821,4286.154,4255.897,4247.564,4456.026,4460.256,4338.077,4415.513
2024-07-03 15:44:08.106600,4244.615,4270.769,4281.026,4307.436,4243.205,4259.231,4251.154,4261.026,4233.333,4228.846,4427.692,4435.385,4311.154,4381.154
2024-07-03 15:44:08.114500,4240.128,4252.436,4266.538,4287.051,4232.308,4261.538,4253.846,4244.359,4213.462,4209.744,4381.795,4409.359,4268.846,4352.436
2024-07-03 15:44:08.122300,4242.692,4268.462,4256.923,4272.821,4246.923,4264.103,4263.333,4251.795,4221.795,4198.974,4384.103,4408.333,4277.436,4362.179
2024-07-03 15:44:08.130200,4259.487,4279.103,4277.051,4289.103,4268.077,4265.256,4267.692,4278.59,4251.154,4216.41,4424.487,4438.974,4301.923,4390.897
2024-07-03 15:44:08.138000,4276.282,4278.077,4303.205,4316.538,4271.538,4264.359,4264.103,4297.308,4276.923,4252.436,4447.949,4461.538,4315.0,4402.308
2024-07-03 15:44:08.145900,4269.615,4292.436,4307.051,4327.051,4266.41,4264.231,4263.846,4298.333,4282.692,4271.154,4451.923,4462.436,4335.128,4407.179
2024-07-03 15:44:08.153700,4270.769,4305.641,4304.103,4317.564,4274.615,4263.974,4263.974,4298.205,4268.974,4252.949,4446.667,4465.128,4340.128,4413.462
2024-07-03 15:44:08.161600,4290.897,4303.59,4306.923,4308.462,4285.641,4261.923,4258.718,4289.103,4261.795,4231.154,4436.026,4465.256,4331.026,4409.487
2024-07-03 15:44:08.169400,4296.538,4307.564,4303.846,4312.179,4286.41,4263.205,4253.077,4268.205,4261.538,4243.462,4435.0,4455.769,4330.897,4404.615
2024-07-03 15:44:08.177200,4268.59,4300.769,4292.308,4318.718,4267.821,4264.744,4248.59,4258.59,4248.462,4255.256,4434.359,4441.795,4321.795,4392.051
2024-07-03 15:44:08.185100,4246.154,4270.769,4291.923,4313.59,4257.179,4262.692,4251.538,4266.667,4239.231,4230.641,4422.821,4439.103,4301.795,4385.385
2024-07-03 15:44:08.192900,4258.846,4274.231,4299.615,4311.923,4276.41,4261.667,4261.026,4278.205,4247.821,4215.385,4425.256,4451.923,4322.564,4383.59
2024-07-03 15:44:08.200800,4271.923,4314.487,4295.769,4315.0,4282.692,4268.718,4262.949,4277.692,4250.897,4228.974,4436.667,4455.641,4349.359,4374.359
2024-07-03 15:44:08.208600,4257.692,4303.718,4287.051,4303.205,4247.436,4265.256,4253.846,4272.949,4244.359,4230.256,4435.769,4451.282,4313.462,4388.718
2024-07-03 15:44:08.216400,4238.462,4250.0,4287.308,4292.179,4235.769,4248.974,4244.103,4280.128,4243.846,4223.974,4432.949,4454.231,4290.513,4399.615
2024-07-03 15:44:08.224100,4236.154,4256.538,4281.667,4295.128,4266.154,4248.205,4241.154,4283.718,4244.615,4229.103,4415.0,4450.0,4321.923,4367.179
2024-07-03 15:44:08.232000,4242.821,4294.872,4275.0,4302.051,4274.615,4262.949,4245.641,4271.795,4248.333,4233.59,4401.538,4436.282,4328.333,4347.308
2024-07-03 15:44:08.239800,4268.974,4299.103,4294.872,4309.359,4264.103,4266.154,4252.051,4273.974,4250.769,4231.026,4436.923,4450.256,4309.487,4391.154
2024-07-03 15:44:08.247600,4288.333,4299.872,4312.821,4328.077,4281.026,4264.103,4253.974,4286.026,4242.564,4223.974,4450.513,4467.179,4320.897,4427.436
2024-07-03 15:44:08.255300,4262.949,4306.538,4288.718,4331.667,4288.59,4265.385,4249.103,4276.154,4236.667,4212.821,4409.103,4442.949,4305.769,4391.282
2024-07-03 15:44:08.263100,4247.564,4313.974,4271.154,4312.949,4256.026,4262.308,4246.923,4271.795,4247.179,4215.641,4404.359,4428.462,4272.179,4344.744
2024-07-03 15:44:08.270800,4269.487,4321.154,4290.0,4316.538,4240.641,4259.487,4247.051,4285.256,4254.103,4225.897,4438.974,4449.231,4297.051,4364.615
2024-07-03 15:44:08.278700,4272.436,4305.0,4292.949,4328.974,4270.641,4258.205,4238.205,4277.949,4234.231,4202.179,4423.205,4449.231,4311.41,4402.179
2024-07-03 15:44:08.286400,4250.128,4284.872,4275.513,4310.128,4294.103,4260.385,4231.923,4268.718,4215.897,4189.872,4392.949,4427.564,4291.41,4377.436
2024-07-03 15:44:08.294300,4248.462,4298.718,4275.641,4291.026,4272.821,4264.103,4233.333,4278.077,4220.769,4206.667,4399.744,4427.564,4292.564,4339.872
2024-07-03 15:44:08.302100,4261.667,4319.744,4287.051,4310.256,4247.821,4259.359,4233.462,4275.128,4232.949,4197.949,4403.974,4444.487,4293.333,4363.462
2024-07-03 15:44:08.310000,4264.103,4301.282,4293.077,4325.641,4253.59,4255.897,4234.744,4262.821,4230.769,4174.615,4402.821,4448.077,4284.231,4389.103
2024-07-03 15:44:08.317800,4255.897,4262.692,4285.897,4307.051,4275.769,4260.128,4236.667,4260.641,4214.359,4178.59,4401.282,4430.385,4291.41,4362.436
2024-07-03 15:44:08.325700,4247.051,4271.923,4276.154,4295.641,4289.359,4267.179,4236.282,4265.513,4215.513,4196.282,4401.923,4425.385,4312.436,4353.974
2024-07-03 15:44:08.333500,4249.744,4304.231,4290.0,4299.359,4257.949,4261.154,4234.103,4269.744,4232.308,4212.308,4415.128,4446.667,4314.231,4380.0
2024-07-03 15:44:08.341400,4249.872,4292.179,4299.872,4289.359,4228.718,4254.103,4232.179,4269.231,4230.897,4219.231,4419.872,4451.538,4305.641,4373.462
2024-07-03 15:44:08.349200,4247.436,4280.385,4284.231,4289.487,4247.308,4259.744,4231.41,4267.821,4212.308,4195.897,4410.641,4438.846,4303.333,4355.513
2024-07-03 15:44:08.356900,4250.769,4288.59,4279.103,4312.051,4269.615,4260.897,4235.897,4278.846,4212.179,4185.641,4414.359,4444.103,4300.641,4368.846
2024-07-03 15:44:08.364700,4236.282,4262.308,4280.385,4295.641,4268.462,4256.41,4233.462,4283.462,4231.41,4203.846,4411.026,4450.385,4291.026,4371.154
2024-07-03 15:44:08.372500,4212.436,4243.205,4265.0,4258.333,4252.692,4255.385,4217.949,4264.231,4239.872,4205.0,4390.897,4430.385,4287.692,4341.026
2024-07-03 15:44:08.380300,4225.513,4273.462,4263.077,4274.744,4229.872,4250.641,4214.744,4258.333,4228.333,4195.385,4405.513,4421.923,4303.077,4336.154
2024-07-03 15:44:08.388000,4260.513,4287.436,4285.256,4301.667,4235.0,4252.308,4228.462,4274.744,4216.026,4202.308,4436.923,4443.462,4313.333,4363.077
2024-07-03 15:44:08.395800,4266.667,4276.026,4301.282,4296.282,4277.564,4270.641,4237.436,4278.846,4221.923,4224.231,4436.667,4463.974,4320.641,4381.026
2024-07-03 15:44:08.403500,4250.128,4277.949,4302.436,4301.154,4286.795,4273.718,4234.103,4269.231,4224.103,4232.179,4424.744,4466.41,4329.615,4384.744
2024-07-03 15:44:08.411300,4242.436,4283.462,4293.718,4313.718,4263.333,4259.872,4229.487,4263.077,4213.59,4214.744,4423.205,4458.462,4325.513,4376.026
2024-07-03 15:44:08.419000,4248.333,4289.872,4290.513,4300.769,4250.769,4262.179,4231.026,4267.564,4221.667,4199.744,4430.641,4458.333,4320.385,4369.359
2024-07-03 15:44:08.426800,4258.077,4277.179,4304.359,4284.744,4230.385,4267.051,4233.205,4275.128,4237.051,4201.667,4438.59,4464.103,4307.179,4375.385
2024-07-03 15:44:08.434500,4247.179,4254.744,4302.308,4292.308,4228.974,4264.231,4231.795,4273.846,4226.667,4198.718,4422.692,4458.205,4305.385,4378.462
2024-07-03 15:44:08.442300,4233.205,4265.256,4281.667,4298.846,4264.103,4267.949,4232.436,4266.154,4216.282,4204.744,4400.897,4455.0,4325.0,4370.641
2024-07-03 15:44:08.450000,4236.538,4279.359,4274.615,4286.282,4259.615,4265.513,4231.41,4261.667,4215.769,4202.692,4411.923,4453.846,4310.0,4362.564
2024-07-03 15:44:08.457800,4240.641,4270.897,4281.026,4281.667,4225.897,4257.436,4226.923,4260.897,4204.359,4185.897,4433.59,4446.154,4281.667,4369.744
2024-07-03 15:44:08.465500,4236.154,4256.538,4282.949,4289.872,4238.59,4260.897,4228.59,4262.564,4201.795,4213.333,4430.513,4444.103,4309.744,4367.436
2024-07-03 15:44:08.473400,4228.59,4244.872,4276.41,4283.462,4260.256,4267.179,4231.667,4265.128,4218.846,4236.667,4410.0,4445.256,4342.436,4346.026
2024-07-03 15:44:08.481100,4230.385,4250.641,4272.179,4271.795,4251.282,4271.538,4231.667,4262.692,4228.59,4208.205,4407.179,4439.487,4323.59,4342.436
2024-07-03 15:44:08.489000,4244.615,4270.0,4275.897,4277.051,4244.872,4278.077,4233.333,4262.436,4230.769,4205.128,4419.872,4444.744,4312.821,4359.231
2024-07-03 15:44:08.496800,4249.231,4272.949,4281.154,4280.641,4239.487,4275.385,4237.179,4268.077,4233.333,4230.513,4434.744,4460.128,4333.333,4366.282
2024-07-03 15:44:08.504700,4230.256,4262.179,4277.949,4279.103,4226.795,4262.692,4239.231,4264.359,4220.897,4217.692,4434.487,4456.923,4334.487,4364.872
2024-07-03 15:44:08.512500,4227.308,4266.026,4282.308,4291.923,4236.41,4268.718,4250.128,4268.205,4213.333,4210.897,4416.923,4455.513,4326.41,4370.641
2024-07-03 15:44:08.520400,4238.718,4265.128,4284.103,4289.615,4253.077,4284.615,4253.59,4277.179,4224.487,4228.974,4409.487,4453.333,4324.744,4352.692
2024-07-03 15:44:08.528200,4222.821,4261.154,4267.179,4263.205,4246.667,4277.179,4238.718,4266.026,4216.795,4207.436,4416.154,4434.487,4318.846,4326.41
2024-07-03 15:44:08.536100,4216.795,4268.974,4264.359,4255.769,4241.41,4267.821,4238.59,4259.615,4200.897,4180.897,4423.205,4434.359,4315.0,4334.744
2024-07-03 15:44:08.543900,4235.897,4255.513,4274.487,4280.256,4218.205,4264.231,4243.077,4267.436,4205.513,4186.667,4410.897,4443.846,4293.462,4355.128
2024-07-03 15:44:08.551800,4234.231,4234.231,4269.103,4292.821,4190.128,4263.077,4236.795,4263.462,4213.718,4202.308,4392.949,4435.0,4271.026,4356.923
2024-07-03 15:44:08.559600,4227.308,4265.256,4261.795,4281.41,4220.385,4280.897,4242.949,4260.385,4208.462,4211.538,4407.436,4433.333,4300.513,4346.154
2024-07-03 15:44:08.567400,4229.744,4287.564,4262.436,4268.846,4256.923,4284.744,4246.154,4263.077,4189.872,4185.641,4420.641,4444.872,4304.487,4340.0
2024-07-03 15:44:08.575200,4221.538,4235.769,4257.051,4262.692,4227.564,4266.154,4236.923,4253.333,4179.615,4158.974,4393.333,4439.615,4263.077,4341.923
2024-07-03 15:44:08.582900,4220.385,4220.128,4254.872,4269.744,4183.333,4269.615,4237.821,4250.897,4193.077,4192.436,4385.0,4423.718,4291.538,4340.641
2024-07-03 15:44:08.590700,4230.513,4270.513,4261.538,4274.615,4204.744,4287.308,4242.051,4266.667,4203.333,4231.026,4418.59,4421.795,4338.205,4329.487
2024-07-03 15:44:08.598400,4212.692,4275.641,4255.897,4271.026,4246.667,4277.179,4231.795,4269.744,4195.385,4205.769,4415.128,4425.897,4299.359,4323.462
2024-07-03 15:44:08.606200,4185.897,4233.846,4244.744,4244.103,4236.026,4261.154,4225.897,4252.051,4182.692,4168.59,4381.026,4419.487,4273.205,4324.103
2024-07-03 15:44:08.613900,4190.256,4223.846,4247.308,4221.41,4194.744,4266.282,4228.462,4241.923,4175.256,4175.769,4389.487,4407.308,4308.205,4318.846
2024-07-03 15:44:08.621800,4201.923,4231.41,4251.923,4258.59,4192.692,4273.077,4232.821,4253.718,4183.59,4194.487,4400.769,4413.205,4296.923,4319.231
2024-07-03 15:44:08.629600,4200.769,4222.949,4249.615,4291.41,4231.282,4282.308,4242.564,4263.077,4192.692,4188.333,4380.0,4428.718,4262.692,4324.231
2024-07-03 15:44:08.637500,4208.462,4239.487,4253.077,4267.308,4231.667,4291.282,4246.795,4264.103,4185.769,4182.308,4391.026,4432.949,4302.564,4331.154
2024-07-03 15:44:08.645300,4211.026,4265.128,4263.846,4256.667,4208.59,4292.949,4246.154,4273.718,4199.231,4204.872,4428.077,4437.821,4350.897,4334.231
2024-07-03 15:44:08.653100,4207.692,4252.436,4269.744,4287.564,4225.897,4295.513,4253.59,4283.846,4219.231,4216.667,4433.333,4450.0,4316.41,4334.359
2024-07-03 15:44:08.660800,4213.077,4227.564,4260.897,4287.051,4261.795,4296.923,4254.615,4278.333,4198.59,4197.564,4413.333,4445.385,4271.026,4333.462
2024-07-03 15:44:08.668700,4203.333,4231.538,4249.231,4236.667,4247.308,4291.154,4240.385,4272.308,4181.538,4197.436,4395.0,4421.923,4301.795,4321.923
2024-07-03 15:44:08.676400,4178.718,4237.179,4254.487,4219.872,4194.487,4278.974,4229.103,4265.769,4185.256,4203.974,4388.846,4411.282,4326.026,4307.308
2024-07-03 15:44:08.684300,4187.821,4226.538,4266.282,4265.256,4192.564,4275.256,4238.205,4258.974,4184.359,4183.718,4394.615,4425.256,4291.026,4303.205
2024-07-03 15:44:08.692100,4215.513,4231.667,4262.821,4293.718,4225.769,4282.949,4248.59,4267.308,4196.667,4175.641,4395.769,4435.385,4273.974,4312.179
2024-07-03 15:44:08.700000,4207.308,4232.051,4259.487,4264.744,4230.513,4293.077,4248.718,4274.615,4210.0,4195.641,4400.128,4433.077,4300.897,4325.641
2024-07-03 15:44:08.707800,4189.103,4223.59,4267.051,4249.872,4230.128,4294.872,4251.795,4265.0,4193.846,4212.692,4411.667,4429.487,4316.41,4317.821
2024-07-03 15:44:08.715700,4196.026,4231.154,4260.513,4268.333,4237.564,4285.385,4247.821,4257.949,4179.359,4201.667,4403.718,4425.128,4312.692,4290.0
2024-07-03 15:44:08.723500,4211.154,4237.436,4263.59,4270.513,4221.154,4276.923,4241.282,4269.103,4190.769,4184.744,4402.179,4433.974,4307.949,4296.282
2024-07-03 15:44:08.731400,4219.615,4227.179,4289.744,4262.179,4215.0,4280.769,4254.487,4279.487,4203.205,4190.0,4423.718,4454.744,4303.462,4331.538
2024-07-03 15:44:08.739200,4216.41,4225.513,4293.077,4264.103,4236.538,4291.154,4268.077,4278.333,4205.641,4207.179,4415.256,4462.821,4318.974,4328.974
2024-07-03 15:44:08.746900,4211.923,4248.462,4276.795,4272.051,4236.667,4298.974,4261.795,4276.538,4200.897,4217.821,4397.436,4456.41,4344.487,4308.846
2024-07-03 15:44:08.754800,4214.359,4253.974,4272.821,4283.333,4229.487,4295.641,4255.513,4276.41,4188.077,4206.026,4414.872,4449.231,4332.179,4309.487
2024-07-03 15:44:08.762700,4221.538,4232.051,4283.077,4276.795,4235.641,4286.026,4260.385,4277.564,4183.333,4185.513,4425.769,4449.231,4289.872,4312.821
2024-07-03 15:44:08.770500,4209.359,4213.718,4283.205,4256.154,4222.692,4277.564,4253.462,4266.026,4186.282,4184.487,4398.974,4437.564,4268.59,4303.333
2024-07-03 15:44:08.778200,4187.564,4210.256,4262.949,4238.077,4210.897,4274.359,4237.949,4243.462,4175.256,4181.154,4362.821,4406.795,4284.744,4272.821
2024-07-03 15:44:08.786000,4187.179,4207.949,4249.872,4239.103,4224.744,4281.154,4245.256,4245.769,4157.308,4160.0,4355.385,4402.949,4295.897,4260.513
2024-07-03 15:44:08.793700,4200.256,4196.154,4267.564,4261.923,4220.128,4288.59,4264.231,4274.872,4171.154,4170.385,4389.872,4442.821,4272.564,4297.179
2024-07-03 15:44:08.801500,4212.179,4208.205,4293.718,4271.795,4207.051,4291.667,4267.308,4287.564,4214.744,4218.59,4430.0,4469.103,4281.538,4322.692
2024-07-03 15:44:08.809200,4221.538,4242.564,4292.436,4260.641,4227.179,4294.359,4265.256,4279.103,4229.359,4238.846,4423.205,4461.538,4343.333,4305.0
2024-07-03 15:44:08.817000,4221.282,4245.897,4278.59,4262.949,4245.0,4295.513,4271.795,4276.154,4198.59,4218.462,4402.692,4451.923,4350.897,4308.462
2024-07-03 15:44:08.824700,4213.205,4215.513,4282.179,4268.205,4233.462,4294.872,4277.179,4277.564,4180.513,4200.0,4419.487,4451.923,4311.154,4323.718
2024-07-03 15:44:08.832500,4218.077,4208.205,4298.077,4253.333,4235.256,4295.256,4281.026,4277.949,4195.769,4200.385,4426.282,4457.436,4313.462,4301.923
2024-07-03 15:44:08.840200,4225.0,4232.821,4294.231,4251.667,4253.462,4294.103,4281.026,4277.051,4200.256,4204.615,4394.103,4452.692,4321.154,4282.692
2024-07-03 15:44:08.848000,4205.641,4232.051,4264.872,4256.41,4233.077,4288.974,4268.974,4271.282,4183.333,4200.513,4378.077,4431.154,4311.41,4284.744
2024-07-03 15:44:08.855700,4186.41,4188.205,4262.821,4249.615,4192.692,4290.513,4264.615,4272.308,4178.205,4194.872,4407.179,4432.051,4319.103,4301.41
2024-07-03 15:44:08.863600,4190.641,4174.487,4285.0,4256.538,4206.538,4295.513,4279.231,4279.359,4192.949,4207.949,4417.051,4455.641,4301.667,4316.026
2024-07-03 15:44:08.871300,4200.0,4210.128,4280.641,4255.897,4248.462,4291.923,4280.769,4269.872,4191.538,4216.795,4392.692,4445.385,4268.718,4291.538
2024-07-03 15:44:08.879200,4200.641,4211.923,4268.205,4229.231,4244.872,4289.872,4271.154,4259.615,4167.949,4201.538,4392.821,4421.154,4299.103,4266.795
2024-07-03 15:44:08.887000,4200.641,4196.41,4280.769,4230.513,4227.436,4297.179,4280.128,4271.795,4172.949,4198.974,4411.282,4441.538,4343.718,4297.436
2024-07-03 15:44:08.894900,4201.538,4208.077,4288.718,4266.667,4227.051,4297.949,4293.974,4282.436,4209.359,4221.795,4408.462,4464.487,4313.077,4323.59
2024-07-03 15:44:08.902700,4206.923,4206.41,4282.308,4274.615,4229.872,4295.769,4294.872,4277.179,4207.179,4220.897,4401.923,4450.513,4285.513,4300.128
2024-07-03 15:44:08.910600,4217.564,4197.436,4286.538,4257.051,4244.872,4299.744,4291.538,4276.667,4179.103,4204.103,4420.385,4444.359,4337.436,4295.897
2024-07-03 15:44:08.918400,4213.974,4216.154,4291.282,4262.436,4256.282,4299.615,4290.897,4281.154,4190.256,4216.282,4434.359,4451.026,4366.538,4311.282
2024-07-03 15:44:08.926300,4206.282,4231.41,4286.282,4275.897,4245.256,4297.179,4295.256,4281.538,4203.974,4222.692,4418.846,4452.692,4323.462,4312.436
2024-07-03 15:44:08.934100,4216.154,4225.641,4292.692,4264.487,4228.59,4296.026,4295.256,4280.256,4186.923,4212.564,4400.641,4460.385,4316.154,4316.538
2024-07-03 15:44:08.942000,4233.205,4212.821,4311.667,4261.538,4224.615,4295.769,4290.897,4278.59,4185.0,4225.897,4423.077,4472.821,4352.436,4328.077
2024-07-03 15:44:08.949800,4233.59,4209.231,4314.359,4274.103,4255.385,4303.846,4294.359,4279.744,4204.487,4243.718,4464.231,4476.282,4354.103,4326.538
2024-07-03 15:44:08.957500,4217.179,4236.154,4294.487,4266.026,4282.051,4300.897,4292.051,4275.897,4200.256,4232.308,4448.205,4469.103,4346.41,4324.872
2024-07-03 15:44:08.965400,4216.026,4243.205,4295.256,4264.359,4243.462,4282.051,4278.205,4261.538,4182.308,4225.641,4416.795,4464.872,4352.436,4337.436
2024-07-03 15:44:08.973100,4239.744,4210.0,4322.051,4283.462,4218.462,4283.846,4283.333,4262.949,4189.872,4250.385,4436.282,4473.846,4344.615,4333.077
2024-07-03 15:44:08.980900,4249.231,4215.897,4321.667,4275.897,4266.154,4300.0,4296.538,4275.385,4202.692,4255.897,4454.872,4480.0,4349.359,4318.59
2024-07-03 15:44:08.988600,4233.333,4241.538,4303.462,4245.641,4283.718,4300.0,4291.795,4269.872,4200.897,4225.0,4425.513,4474.744,4364.872,4325.385
2024-07-03 15:44:08.996400,4228.462,4234.103,4313.846,4271.923,4240.128,4288.59,4288.974,4260.897,4183.846,4217.564,4413.59,4476.026,4361.026,4340.513
2024-07-03 15:44:09.004100,4242.949,4233.205,4330.769,4319.872,4226.667,4279.487,4294.615,4265.385,4165.0,4241.026,4445.385,4485.641,4343.718,4343.205
2024-07-03 15:44:09.011900,4248.718,4251.154,4321.667,4293.462,4258.718,4286.282,4301.154,4267.179,4178.462,4251.923,4452.949,4488.718,4341.026,4330.769
2024-07-03 15:44:09.019600,4238.974,4240.385,4311.538,4253.59,4283.205,4299.872,4304.231,4264.487,4195.769,4241.538,4434.615,4483.59,4356.923,4324.103
2024-07-03 15:44:09.027400,4234.487,4221.154,4320.769,4277.692,4269.231,4295.128,4296.667,4274.359,4185.897,4233.718,4438.59,4483.718,4348.846,4340.0
2024-07-03 15:44:09.035100,4238.718,4242.179,4331.282,4297.179,4239.359,4287.821,4292.308,4285.769,4197.051,4242.436,4453.077,4494.872,4333.333,4348.205
2024-07-03 15:44:09.043000,4229.872,4271.923,4320.256,4269.872,4243.462,4293.974,4297.949,4277.692,4219.872,4252.564,4451.282,4495.769,4361.795,4322.949
2024-07-03 15:44:09.050800,4230.513,4259.359,4317.436,4274.487,4263.718,4300.513,4306.026,4270.769,4207.179,4254.103,4441.282,4488.205,4379.615,4323.846
2024-07-03 15:44:09.058800,4248.333,4218.846,4339.231,4297.692,4257.308,4302.949,4312.564,4275.897,4194.872,4245.128,4436.923,4496.667,4339.744,4358.59
2024-07-03 15:44:09.066600,4236.282,4215.769,4329.103,4269.872,4238.974,4298.59,4306.538,4267.692,4194.872,4228.846,4440.897,4495.0,4321.282,4338.462
2024-07-03 15:44:09.074500,4215.256,4254.487,4298.59,4255.513,4253.077,4289.744,4291.667,4258.974,4186.795,4231.795,4444.487,4472.308,4361.923,4289.615
2024-07-03 15:44:09.082300,4216.923,4253.077,4296.667,4279.103,4253.462,4278.205,4285.256,4264.744,4182.564,4239.872,4408.205,4458.718,4351.538,4297.692
2024-07-03 15:44:09.090200,4205.769,4205.0,4300.256,4273.718,4221.667,4268.59,4284.615,4254.615,4165.256,4208.59,4374.615,4450.0,4294.231,4312.564
2024-07-03 15:44:09.098000,4196.667,4202.051,4295.0,4243.59,4230.641,4271.795,4285.256,4242.179,4151.538,4188.077,4399.359,4446.538,4304.103,4287.564
2024-07-03 15:44:09.105900,4221.538,4238.974,4302.564,4249.359,4257.949,4284.231,4294.231,4252.692,4176.923,4232.821,4441.667,4461.026,4357.692,4302.564
2024-07-03 15:44:09.113700,4231.282,4229.103,4312.051,4275.513,4249.872,4282.308,4297.564,4258.205,4186.923,4267.692,4440.0,4466.538,4360.128,4351.795
2024-07-03 15:44:09.121600,4209.744,4209.231,4297.179,4271.026,4217.821,4267.051,4282.051,4245.897,4165.769,4233.205,4399.231,4453.077,4316.282,4332.564
2024-07-03 15:44:09.129400,4209.359,4210.641,4285.769,4257.051,4208.462,4263.846,4274.231,4237.692,4169.487,4201.667,4391.026,4449.487,4299.744,4285.0
2024-07-03 15:44:09.137100,4230.513,4195.256,4309.872,4242.436,4234.103,4275.0,4288.718,4243.974,4193.59,4238.462,4431.667,4459.103,4345.385,4302.564
2024-07-03 15:44:09.144900,4238.974,4203.974,4336.026,4248.333,4250.0,4281.667,4300.256,4251.154,4188.718,4278.974,4465.0,4471.538,4391.923,4343.333
2024-07-03 15:44:09.152600,4224.231,4234.872,4324.744,4273.846,4236.026,4275.256,4296.41,4249.487,4171.282,4267.564,4455.385,4479.615,4356.795,4336.923
2024-07-03 15:44:09.160500,4209.615,4215.128,4305.513,4266.667,4235.128,4271.795,4292.949,4251.795,4176.282,4239.103,4435.641,4474.615,4304.872,4319.615
2024-07-03 15:44:09.168200,4218.718,4200.513,4310.641,4249.615,4261.282,4281.923,4299.744,4261.41,4185.128,4243.59,4429.872,4473.205,4344.615,4323.462
2024-07-03 15:44:09.176000,4220.769,4230.256,4308.59,4265.641,4239.359,4279.103,4298.718,4257.308,4174.872,4260.128,4428.846,4477.051,4366.41,4312.949
2024-07-03 15:44:09.183700,4203.718,4219.872,4298.205,4269.487,4212.692,4266.923,4287.436,4244.872,4166.923,4242.179,4436.154,4468.205,4303.846,4302.949
2024-07-03 15:44:09.191600,4200.128,4196.41,4307.949,4253.974,4240.128,4272.308,4286.667,4247.949,4174.615,4229.103,4447.949,4466.026,4309.103,4319.744
2024-07-03 15:44:09.199400,4206.026,4214.487,4312.051,4261.282,4259.359,4282.051,4296.41,4252.949,4173.205,4256.154,4452.436,4473.205,4375.897,4321.41
2024-07-03 15:44:09.207200,4202.949,4218.974,4301.667,4256.538,4240.256,4271.026,4298.205,4249.359,4171.026,4276.154,4437.821,4466.923,4351.923,4294.487
2024-07-03 15:44:09.214900,4199.103,4217.821,4297.949,4242.308,4228.59,4258.846,4292.949,4249.231,4185.385,4250.769,4424.744,4455.0,4298.462,4289.103
2024-07-03 15:44:09.222700,4188.462,4219.744,4295.641,4262.436,4234.744,4265.513,4296.154,4251.667,4192.436,4233.462,4423.333,4444.872,4311.667,4291.41
2024-07-03 15:44:09.230400,4182.821,4198.462,4289.359,4273.333,4227.308,4272.564,4302.436,4248.59,4174.359,4254.872,4429.487,4443.718,4333.333,4291.41
2024-07-03 15:44:09.238200,4199.744,4200.256,4291.923,4264.872,4236.154,4276.538,4305.641,4247.564,4149.615,4273.333,4442.692,4456.154,4327.949,4308.59
2024-07-03 15:44:09.245900,4202.051,4223.718,4295.0,4269.744,4255.769,4276.41,4301.923,4245.769,4157.179,4262.308,4427.051,4457.692,4311.282,4301.923
2024-07-03 15:44:09.253900,4202.179,4236.923,4301.923,4276.667,4242.179,4272.179,4298.59,4239.872,4181.795,4245.128,4413.462,4456.538,4307.821,4291.538
2024-07-03 15:44:09.261700,4220.513,4244.615,4319.872,4288.59,4214.615,4263.846,4297.564,4235.897,4177.051,4256.667,4440.513,4465.513,4346.667,4309.872
2024-07-03 15:44:09.269600,4206.026,4227.821,4319.487,4298.333,4223.462,4257.821,4293.59,4233.077,4157.692,4257.051,4452.051,4460.385,4363.59,4312.308
2024-07-03 15:44:09.277400,4204.615,4216.923,4322.821,4281.795,4279.615,4278.205,4305.0,4234.872,4165.385,4249.231,4443.59,4471.282,4340.641,4321.795
2024-07-03 15:44:09.285300,4257.821,4266.923,4349.487,4290.769,4299.744,4300.513,4324.359,4241.538,4167.821,4280.513,4459.744,4504.359,4361.154,4356.923
2024-07-03 15:44:09.293100,4265.385,4304.103,4349.231,4327.949,4245.128,4289.359,4317.179,4236.667,4156.667,4296.026,4457.564,4501.41,4378.205,4351.667
2024-07-03 15:44:09.301000,4228.974,4261.154,4330.513,4303.59,4221.026,4272.692,4301.154,4229.615,4166.41,4269.615,4433.846,4487.821,4346.282,4327.949
2024-07-03 15:44:09.308800,4243.077,4237.179,4346.41,4266.923,4263.462,4281.41,4316.538,4242.051,4192.308,4281.026,4449.231,4511.538,4367.179,4357.692
2024-07-03 15:44:09.316600,4257.436,4259.487,4362.949,4308.59,4270.0,4284.359,4325.128,4244.615,4202.436,4306.667,4449.744,4522.949,4397.179,4376.667
2024-07-03 15:44:09.324400,4238.205,4257.051,4353.974,4335.641,4243.974,4277.308,4306.154,4229.103,4180.513,4282.436,4419.359,4505.385,4348.333,4358.846
2024-07-03 15:44:09.332200,4254.744,4251.154,4356.41,4287.692,4257.821,4288.462,4313.59,4238.462,4163.333,4276.154,4426.282,4502.949,4338.59,4362.564
2024-07-03 15:44:09.340000,4273.077,4258.205,4355.897,4268.718,4273.846,4299.615,4332.436,4250.128,4176.538,4297.308,4440.385,4501.923,4382.436,4356.026
2024-07-03 15:44:09.347700,4256.41,4271.667,4342.949,4310.513,4258.974,4294.615,4321.538,4237.692,4192.692,4292.179,4430.769,4491.41,4375.897,4336.667
2024-07-03 15:44:09.355600,4246.667,4274.744,4341.538,4322.821,4238.974,4283.718,4304.615,4231.026,4188.205,4277.692,4411.795,4490.385,4347.821,4352.436
2024-07-03 15:44:09.363300,4239.744,4254.487,4341.026,4293.333,4244.872,4278.846,4308.718,4238.462,4177.308,4276.282,4394.359,4485.897,4354.744,4361.923
2024-07-03 15:44:09.371100,4247.821,4244.487,4338.59,4292.308,4271.538,4283.974,4318.59,4235.641,4169.231,4276.026,4411.154,4481.795,4361.154,4356.026
2024-07-03 15:44:09.378800,4285.128,4271.538,4351.282,4314.103,4281.026,4293.974,4324.744,4231.282,4174.487,4282.821,4452.949,4501.282,4353.333,4376.41
2024-07-03 15:44:09.386600,4287.179,4292.564,4359.103,4304.872,4261.154,4298.333,4329.615,4236.667,4198.59,4301.41,4443.974,4511.282,4377.821,4377.179
2024-07-03 15:44:09.394300,4243.462,4271.923,4347.436,4284.103,4249.359,4296.538,4326.026,4232.564,4201.667,4306.026,4415.256,4490.769,4401.282,4348.205
2024-07-03 15:44:09.402100,4239.487,4257.564,4336.154,4290.128,4258.846,4292.692,4318.077,4216.795,4178.974,4282.949,4408.846,4479.103,4361.154,4357.821
2024-07-03 15:44:09.409800,4273.59,4261.538,4332.821,4304.872,4265.385,4281.026,4305.769,4205.513,4160.769,4257.436,4385.256,4482.949,4313.718,4376.795
2024-07-03 15:44:09.417600,4269.487,4267.308,4326.154,4295.385,4261.795,4274.872,4295.641,4201.026,4153.974,4263.462,4373.846,4469.231,4350.128,4340.0
2024-07-03 15:44:09.425300,4240.897,4267.179,4318.077,4273.462,4258.333,4283.718,4301.538,4197.949,4150.641,4272.308,4391.026,4448.462,4387.179,4312.179
2024-07-03 15:44:09.433100,4238.846,4252.179,4326.667,4282.051,4266.667,4293.205,4318.462,4204.487,4153.846,4265.256,4400.0,4458.333,4339.359,4355.769
2024-07-03 15:44:09.440800,4262.179,4251.282,4347.051,4318.718,4266.282,4293.59,4331.923,4224.487,4178.333,4275.897,4417.949,4492.949,4328.846,4396.154
2024-07-03 15:44:09.448800,4277.308,4273.077,4351.795,4320.513,4245.0,4288.205,4329.872,4236.538,4209.231,4300.769,4449.872,4508.718,4393.59,4378.462
2024-07-03 15:44:09.456600,4279.231,4292.692,4353.077,4286.154,4251.41,4296.026,4330.513,4235.897,4223.333,4315.769,4454.103,4504.615,4412.308,4371.026
2024-07-03 15:44:09.464500,4283.205,4287.179,4364.744,4291.026,4286.538,4307.179,4334.744,4230.0,4220.0,4315.0,4437.308,4511.667,4374.103,4404.231
2024-07-03 15:44:09.472300,4272.949,4275.641,4357.308,4328.462,4286.923,4291.282,4321.282,4218.974,4203.59,4296.282,4435.385,4510.128,4362.949,4396.667
2024-07-03 15:44:09.480200,4257.308,4282.692,4338.333,4320.769,4260.641,4275.641,4310.897,4211.282,4184.103,4282.692,4436.41,4486.41,4386.795,4361.923
2024-07-03 15:44:09.488000,4266.667,4293.974,4339.487,4291.026,4272.564,4293.333,4325.641,4213.846,4177.821,4295.128,4431.538,4481.026,4396.154,4371.538
2024-07-03 15:44:09.495900,4285.0,4295.256,4348.846,4302.308,4298.333,4308.59,4338.974,4221.282,4186.41,4301.026,4431.667,4498.974,4376.538,4390.513
2024-07-03 15:44:09.503700,4290.128,4295.897,4351.923,4328.462,4281.154,4297.821,4327.051,4220.128,4190.641,4295.769,4443.718,4504.231,4359.487,4385.128
2024-07-03 15:44:09.511600,4276.282,4282.308,4344.615,4313.846,4246.282,4284.744,4311.026,4205.641,4183.077,4294.744,4442.051,4483.333,4365.769,4375.385
2024-07-03 15:44:09.519400,4253.718,4261.154,4328.846,4288.718,4243.077,4275.897,4307.436,4196.667,4174.359,4281.41,4408.846,4459.872,4364.231,4369.872
2024-07-03 15:44:09.527200,4254.231,4279.359,4324.872,4295.769,4268.59,4280.513,4313.462,4196.795,4177.564,4271.41,4391.154,4460.641,4340.897,4358.205
2024-07-03 15:44:09.535000,4281.282,4304.487,4340.769,4307.051,4287.436,4301.154,4325.385,4199.103,4197.436,4291.795,4419.231,4478.462,4351.154,4360.128
2024-07-03 15:44:09.542700,4283.974,4283.205,4347.051,4297.692,4280.0,4306.026,4330.256,4205.256,4205.0,4301.795,4441.795,4480.769,4374.872,4381.282
2024-07-03 15:44:09.550600,4252.051,4267.179,4328.846,4285.641,4268.846,4295.0,4327.949,4208.974,4185.256,4286.667,4412.692,4458.846,4355.897,4362.179
2024-07-03 15:44:09.558300,4251.667,4286.667,4318.846,4296.154,4280.769,4295.256,4327.051,4201.923,4166.667,4280.897,4388.846,4448.59,4335.769,4325.385
2024-07-03 15:44:09.566100,4279.487,4291.667,4334.744,4322.821,4283.077,4299.872,4325.256,4195.0,4171.795,4274.744,4428.333,4468.077,4351.923,4375.897
2024-07-03 15:44:09.573800,4275.641,4277.308,4344.744,4322.564,4264.615,4302.051,4325.897,4201.026,4190.641,4258.718,4445.769,4487.564,4376.282,4437.051
2024-07-03 15:44:09.581600,4262.436,4270.256,4336.026,4297.308,4269.231,4308.846,4329.359,4207.179,4209.231,4274.872,4402.821,4477.821,4368.333,4383.205
2024-07-03 15:44:09.589300,4284.872,4275.641,4331.538,4291.154,4286.538,4299.872,4317.564,4197.051,4213.333,4315.513,4403.718,4461.282,4355.256,4342.821
2024-07-03 15:44:09.597100,4301.026,4285.128,4341.795,4295.385,4273.205,4282.692,4306.282,4190.0,4193.974,4309.872,4451.667,4474.615,4374.103,4406.154
2024-07-03 15:44:09.604800,4278.077,4277.436,4345.769,4284.231,4252.949,4287.821,4317.436,4199.615,4181.41,4272.564,4448.718,4487.564,4387.179,4420.641
2024-07-03 15:44:09.612600,4261.026,4253.462,4327.821,4283.333,4257.949,4293.718,4323.077,4200.513,4184.231,4270.513,4402.564,4466.154,4364.231,4359.615
2024-07-03 15:44:09.620300,4262.564,4257.436,4312.692,4296.154,4273.974,4291.026,4319.103,4192.821,4190.0,4293.59,4397.564,4445.256,4357.564,4355.513
2024-07-03 15:44:09.628200,4266.923,4287.949,4323.333,4288.718,4280.513,4297.051,4326.923,4201.923,4197.436,4299.744,4417.692,4456.41,4389.487,4382.051
2024-07-03 15:44:09.636000,4263.59,4284.103,4332.436,4286.026,4253.59,4293.846,4328.718,4203.59,4195.0,4279.231,4409.231,4466.538,4367.692,4365.513
2024-07-03 15:44:09.644000,4247.821,4239.744,4325.0,4297.692,4228.974,4283.333,4320.256,4186.026,4179.744,4260.769,4400.769,4457.949,4306.538,4350.128
2024-07-03 15:44:09.651800,4239.615,4222.308,4322.179,4289.359,4257.308,4293.333,4318.333,4181.667,4181.154,4273.718,4409.487,4455.256,4313.462,4362.179
2024-07-03 15:44:09.659700,4252.436,4255.385,4323.077,4262.179,4291.41,4299.744,4312.179,4185.897,4193.205,4295.385,4414.359,4454.744,4368.59,4366.026
2024-07-03 15:44:09.667500,4271.026,4277.051,4324.103,4254.872,4277.436,4287.436,4307.308,4186.154,4193.718,4286.923,4409.872,4448.462,4376.282,4359.359
2024-07-03 15:44:09.675400,4258.333,4259.872,4320.256,4277.564,4243.205,4277.179,4308.718,4184.359,4184.744,4262.564,4395.256,4440.769,4327.821,4357.436
2024-07-03 15:44:09.683200,4226.154,4236.154,4305.256,4284.103,4242.949,4274.744,4304.359,4181.667,4171.538,4255.641,4377.051,4435.385,4304.615,4347.051
2024-07-03 15:44:09.691100,4227.821,4237.949,4305.256,4267.308,4268.205,4287.949,4318.974,4196.41,4178.077,4268.077,4398.974,4446.41,4336.41,4345.385
2024-07-03 15:44:09.698900,4258.718,4260.0,4324.359,4286.923,4263.077,4306.41,4347.949,4221.026,4201.795,4276.667,4427.564,4465.128,4372.308,4365.0
2024-07-03 15:44:09.706700,4270.385,4270.128,4329.615,4308.974,4242.051,4302.821,4340.513,4221.538,4211.154,4277.949,4397.949,4466.923,4357.436,4374.615
2024-07-03 15:44:09.714500,4247.179,4247.564,4322.949,4270.897,4239.615,4287.308,4316.41,4201.41,4195.513,4276.154,4391.41,4457.436,4316.154,4371.282
2024-07-03 15:44:09.722200,4239.359,4236.667,4333.077,4247.821,4262.564,4297.051,4331.923,4198.59,4197.949,4286.282,4441.282,4470.256,4336.538,4377.564
2024-07-03 15:44:09.730000,4255.256,4257.949,4333.462,4278.205,4280.128,4311.923,4342.051,4206.667,4217.821,4296.282,4443.718,4478.077,4368.846,4378.077
2024-07-03 15:44:09.737700,4260.256,4252.821,4312.692,4299.231,4266.923,4303.077,4315.128,4200.897,4207.821,4287.564,4406.026,4453.718,4337.949,4358.846
2024-07-03 15:44:09.745700,4247.436,4243.718,4312.436,4293.718,4246.282,4294.872,4307.692,4197.436,4200.641,4281.026,4395.128,4443.462,4322.179,4351.795
2024-07-03 15:44:09.753500,4232.564,4247.821,4322.179,4256.923,4235.0,4288.846,4317.692,4201.41,4215.128,4265.385,4381.795,4454.615,4335.897,4356.667
2024-07-03 15:44:09.761400,4229.744,4221.538,4307.179,4226.282,4255.769,4286.923,4313.462,4199.744,4209.615,4239.359,4375.256,4448.59,4317.051,4346.667
2024-07-03 15:44:09.769200,4232.308,4210.128,4286.667,4251.026,4273.974,4294.103,4308.333,4193.846,4181.026,4248.077,4405.641,4429.615,4310.897,4331.795
2024-07-03 15:44:09.777000,4234.359,4240.128,4296.667,4286.282,4242.308,4290.897,4315.0,4201.154,4180.0,4287.692,4408.205,4436.282,4337.436,4339.231
2024-07-03 15:44:09.784700,4223.333,4246.282,4310.513,4263.974,4219.487,4283.077,4321.282,4208.333,4203.59,4276.282,4371.154,4447.949,4314.615,4356.41
2024-07-03 15:44:09.792500,4206.923,4228.846,4299.615,4227.436,4249.615,4288.846,4320.0,4196.795,4206.923,4227.179,4366.667,4429.231,4285.641,4350.385
2024-07-03 15:44:09.800200,4215.897,4218.59,4289.103,4233.333,4261.154,4286.282,4310.641,4188.718,4198.205,4238.974,4394.744,4412.821,4315.641,4322.564
2024-07-03 15:44:09.808100,4227.949,4196.538,4293.974,4250.897,4238.59,4274.359,4306.923,4196.538,4204.487,4272.308,4402.308,4422.051,4324.487,4310.256
2024-07-03 15:44:09.815900,4220.513,4202.564,4298.462,4253.077,4243.718,4282.821,4316.795,4202.692,4216.41,4273.077,4395.385,4434.744,4303.974,4339.231
2024-07-03 15:44:09.823800,4211.923,4236.923,4289.872,4251.41,4239.487,4285.769,4309.744,4196.154,4201.667,4272.308,4404.872,4429.103,4312.821,4374.615
2024-07-03 15:44:09.831600,4223.205,4242.308,4290.256,4258.59,4232.179,4275.513,4294.744,4195.256,4186.026,4273.718,4411.538,4428.462,4331.026,4368.974
2024-07-03 15:44:09.839600,4243.077,4230.0,4306.282,4261.026,4255.513,4276.282,4297.949,4203.333,4198.59,4252.436,4402.436,4442.564,4338.205,4341.154
2024-07-03 15:44:09.847400,4232.692,4219.103,4309.103,4263.59,4240.128,4280.0,4303.974,4201.41,4207.051,4236.538,4401.667,4439.359,4328.462,4332.308
2024-07-03 15:44:09.855300,4209.231,4214.615,4301.667,4265.385,4219.487,4278.974,4305.897,4198.59,4202.821,4250.385,4416.41,4430.0,4302.436,4357.436
2024-07-03 15:44:09.863100,4230.897,4233.462,4305.641,4259.744,4259.103,4277.436,4311.795,4201.282,4201.026,4260.897,4423.846,4443.59,4300.641,4390.128
2024-07-03 15:44:09.870900,4275.385,4262.564,4320.897,4275.0,4285.385,4285.641,4322.308,4206.667,4219.744,4273.333,4433.077,4465.256,4356.026,4387.436
2024-07-03 15:44:09.878600,4273.59,4273.59,4332.564,4285.256,4261.282,4297.308,4325.0,4211.026,4251.923,4300.513,4452.949,4467.564,4391.538,4365.256
2024-07-03 15:44:09.886500,4251.154,4277.051,4335.513,4276.154,4257.949,4299.872,4326.538,4216.154,4250.513,4311.282,4461.282,4465.0,4363.205,4386.154
2024-07-03 15:44:09.894300,4267.436,4278.077,4328.846,4291.026,4276.923,4299.103,4327.821,4222.051,4219.231,4288.718,4443.974,4469.872,4346.923,4416.538
2024-07-03 15:44:09.902100,4280.897,4269.744,4322.179,4313.333,4271.667,4292.949,4316.026,4211.667,4211.282,4256.154,4431.282,4471.538,4358.59,4400.385
2024-07-03 15:44:09.909900,4278.462,4272.564,4333.974,4313.205,4254.872,4284.744,4308.462,4197.308,4224.744,4264.231,4461.667,4478.333,4369.487,4398.974
2024-07-03 15:44:09.917600,4299.359,4286.667,4347.821,4309.487,4248.718,4287.051,4316.667,4205.513,4224.103,4294.744,4491.154,4486.154,4374.872,4438.718
2024-07-03 15:44:09.925400,4311.282,4297.564,4342.308,4309.744,4250.769,4286.795,4316.282,4217.308,4214.359,4297.821,4477.308,4484.487,4373.974,4451.923
2024-07-03 15:44:09.933100,4302.821,4314.359,4336.538,4316.282,4264.872,4275.897,4307.821,4211.538,4217.051,4299.231,4462.692,4483.462,4391.923,4441.41
2024-07-03 15:44:09.941000,4326.154,4327.436,4359.744,4327.308,4290.769,4276.667,4315.513,4210.0,4234.231,4315.897,4487.821,4496.282,4422.564,4459.615
2024-07-03 15:44:09.948700,4366.026,4311.282,4379.231,4335.385,4297.949,4282.051,4316.795,4215.385,4237.308,4302.692,4509.744,4508.077,4430.513,4490.128
2024-07-03 15:44:09.956500,4374.744,4314.872,4367.692,4343.205,4271.795,4278.59,4303.846,4211.538,4221.923,4291.154,4494.103,4509.487,4423.974,4507.436
2024-07-03 15:44:09.964200,4368.846,4347.564,4363.205,4345.897,4248.718,4276.026,4310.513,4210.641,4231.282,4322.051,4490.0,4513.974,4445.256,4513.205
2024-07-03 15:44:09.972000,4364.615,4343.077,4370.897,4337.692,4276.026,4278.974,4324.872,4216.538,4254.487,4337.949,4510.769,4515.256,4465.897,4500.897
2024-07-03 15:44:09.979700,4359.103,4323.462,4364.872,4334.487,4312.308,4283.59,4320.513,4215.769,4252.308,4329.872,4513.205,4507.564,4456.795,4493.846
2024-07-03 15:44:09.987500,4368.59,4337.179,4364.231,4347.821,4315.385,4286.41,4318.974,4217.564,4242.692,4329.103,4499.872,4511.923,4444.744,4512.051
2024-07-03 15:44:09.995200,4382.821,4345.897,4381.41,4350.0,4302.436,4281.923,4325.256,4229.615,4249.103,4317.692,4515.641,4530.128,4444.487,4532.051
2024-07-03 15:44:10.003100,4370.0,4326.923,4382.436,4344.615,4273.333,4274.359,4320.513,4232.949,4248.077,4302.564,4521.154,4529.359,4459.872,4528.205
2024-07-03 15:44:10.010900,4353.974,4321.154,4370.641,4349.103,4262.949,4275.769,4316.795,4229.744,4236.923,4316.41,4493.846,4522.692,4466.538,4507.692
2024-07-03 15:44:10.018800,4354.231,4321.923,4369.872,4342.179,4284.359,4276.026,4317.692,4231.667,4235.641,4339.231,4491.538,4520.897,4445.641,4498.205
2024-07-03 15:44:10.026600,4355.769,4316.41,4367.179,4321.667,4288.333,4265.0,4308.205,4219.615,4242.949,4344.744,4505.769,4510.0,4422.179,4505.641
2024-07-03 15:44:10.034600,4347.179,4311.154,4360.769,4321.538,4276.923,4256.41,4300.128,4203.462,4251.795,4330.641,4499.615,4506.154,4430.256,4499.487
2024-07-03 15:44:10.042400,4329.359,4291.667,4357.821,4333.846,4280.769,4253.205,4301.667,4217.564,4257.051,4301.154,4486.154,4511.667,4447.308,4476.026
2024-07-03 15:44:10.050300,4320.385,4282.179,4363.59,4319.231,4268.462,4247.821,4307.821,4237.949,4258.077,4296.41,4492.692,4508.59,4435.513,4470.256
2024-07-03 15:44:10.058100,4324.744,4293.59,4371.41,4310.0,4258.974,4246.154,4315.513,4238.846,4259.359,4319.359,4491.282,4510.641,4414.231,4474.359
2024-07-03 15:44:10.066000,4327.564,4303.718,4360.385,4318.205,4286.41,4246.538,4310.128,4231.795,4256.538,4317.564,4473.59,4512.821,4403.974,4475.256
2024-07-03 15:44:10.073800,4310.641,4295.385,4327.949,4319.103,4290.0,4236.538,4291.667,4215.0,4233.846,4282.564,4445.513,4476.795,4386.282,4444.615
2024-07-03 15:44:10.081700,4296.282,4278.205,4312.949,4319.615,4273.333,4233.974,4291.282,4210.385,4225.641,4275.0,4416.282,4450.769,4364.487,4398.205
2024-07-03 15:44:10.089600,4309.359,4278.205,4334.103,4312.308,4271.41,4236.282,4300.128,4234.487,4260.256,4307.179,4440.256,4477.051,4372.949,4422.308
2024-07-03 15:44:10.097400,4320.0,4292.051,4351.154,4312.051,4274.744,4219.744,4285.641,4239.103,4293.077,4327.821,4495.128,4495.769,4397.692,4472.308
2024-07-03 15:44:10.105200,4327.436,4312.179,4354.231,4337.308,4299.103,4211.923,4275.385,4227.949,4295.897,4333.974,4490.128,4496.538,4398.205,4460.769
2024-07-03 15:44:10.112900,4339.744,4327.692,4358.718,4354.744,4316.154,4216.41,4287.821,4238.077,4278.077,4316.538,4445.385,4507.564,4372.436,4435.0
2024-07-03 15:44:10.120700,4337.692,4336.154,4360.0,4355.641,4301.282,4203.974,4289.487,4242.949,4262.051,4277.949,4455.897,4508.718,4365.513,4450.385
2024-07-03 15:44:10.128400,4320.513,4327.949,4348.59,4345.256,4289.872,4191.026,4276.538,4230.769,4260.641,4272.949,4477.564,4487.692,4380.128,4451.154
2024-07-03 15:44:10.136300,4316.538,4307.949,4331.538,4321.667,4287.179,4199.872,4277.179,4228.077,4259.744,4285.385,4440.513,4470.897,4366.795,4425.0
2024-07-03 15:44:10.144000,4318.974,4303.718,4331.538,4315.385,4281.026,4202.436,4284.103,4234.103,4258.846,4270.769,4422.564,4472.564,4330.128,4419.103
2024-07-03 15:44:10.151800,4310.513,4300.641,4345.256,4323.59,4293.59,4187.308,4274.231,4229.744,4264.487,4264.359,4444.103,4474.103,4320.0,4418.718
2024-07-03 15:44:10.159500,4304.487,4295.769,4341.154,4318.59,4313.718,4181.795,4268.333,4215.513,4255.385,4273.333,4436.026,4464.872,4341.282,4412.949
2024-07-03 15:44:10.167400,4303.462,4310.0,4323.974,4325.385,4308.333,4188.974,4283.718,4216.538,4246.41,4271.923,4419.744,4460.769,4354.615,4406.282
2024-07-03 15:44:10.175200,4304.872,4328.846,4326.795,4347.179,4299.872,4192.308,4292.692,4233.077,4271.154,4286.154,4433.462,4467.821,4346.795,4406.538
2024-07-03 15:44:10.183100,4303.846,4317.564,4334.231,4342.179,4288.462,4180.897,4283.846,4231.41,4275.897,4288.846,4433.59,4461.538,4328.077,4406.538
2024-07-03 15:44:10.190900,4304.103,4300.641,4327.308,4331.795,4274.231,4167.179,4273.846,4220.385,4251.026,4247.436,4431.154,4455.769,4317.436,4417.692
2024-07-03 15:44:10.198800,4316.026,4314.872,4324.231,4328.077,4282.564,4166.026,4268.974,4230.385,4250.0,4241.41,4445.513,4466.026,4320.897,4422.436
2024-07-03 15:44:10.206600,4314.615,4317.692,4327.051,4312.179,4310.128,4168.462,4263.462,4234.231,4256.795,4276.41,4431.154,4458.59,4319.487,4391.026
2024-07-03 15:44:10.214500,4293.718,4304.744,4323.077,4318.846,4332.436,4167.308,4263.974,4215.513,4244.744,4267.821,4405.641,4438.718,4306.795,4384.872
2024-07-03 15:44:10.222300,4291.41,4308.205,4325.385,4343.205,4307.692,4167.051,4268.205,4208.718,4243.974,4234.615,4410.256,4440.0,4312.821,4412.179
2024-07-03 15:44:10.230200,4307.821,4311.154,4337.692,4341.667,4278.718,4168.718,4272.308,4215.513,4260.128,4240.0,4428.333,4456.282,4342.436,4417.179
2024-07-03 15:44:10.238100,4311.538,4307.692,4337.051,4330.769,4295.256,4166.795,4276.026,4219.744,4265.256,4265.128,4446.923,4464.487,4331.795,4409.231
2024-07-03 15:44:10.246000,4306.795,4318.462,4323.333,4333.205,4310.641,4168.205,4272.564,4225.0,4261.538,4272.308,4450.385,4458.077,4302.821,4412.051
2024-07-03 15:44:10.253800,4309.359,4322.821,4316.538,4321.538,4300.897,4166.282,4264.872,4224.359,4265.385,4267.051,4428.974,4447.564,4325.256,4403.718
2024-07-03 15:44:10.261700,4308.205,4302.821,4313.974,4310.513,4303.59,4150.897,4259.487,4219.231,4270.256,4265.256,4425.641,4442.564,4360.769,4395.0
2024-07-03 15:44:10.269500,4293.077,4281.282,4305.256,4322.564,4303.205,4138.718,4252.308,4213.333,4254.872,4256.026,4431.538,4444.615,4347.692,4415.385
2024-07-03 15:44:10.277200,4284.231,4285.385,4306.154,4317.949,4279.744,4145.513,4248.205,4207.436,4240.897,4253.846,4420.256,4448.462,4319.231,4418.077
2024-07-03 15:44:10.285000,4288.846,4300.769,4305.256,4298.974,4278.077,4149.359,4249.487,4204.872,4257.692,4257.564,4418.205,4440.385,4302.436,4390.385
2024-07-03 15:44:10.292700,4298.59,4298.59,4295.769,4305.897,4292.436,4145.897,4252.692,4211.538,4268.59,4247.564,4429.231,4431.41,4307.051,4390.0
2024-07-03 15:44:10.300500,4302.949,4288.846,4300.641,4323.974,4293.846,4148.846,4248.205,4219.359,4252.821,4237.308,4428.718,4442.179,4343.462,4415.769
2024-07-03 15:44:10.308200,4301.923,4292.564,4312.179,4327.821,4293.974,4150.641,4246.154,4219.231,4242.949,4240.769,4435.385,4450.641,4357.308,4412.179
2024-07-03 15:44:10.316100,4297.179,4294.744,4310.0,4322.179,4297.949,4148.846,4255.641,4220.256,4255.256,4257.821,4442.949,4441.667,4330.769,4388.846
2024-07-03 15:44:10.323900,4289.872,4284.615,4307.308,4310.385,4304.359,4150.897,4258.718,4222.436,4273.462,4275.641,4411.154,4444.872,4317.949,4398.333
2024-07-03 15:44:10.331800,4299.744,4297.436,4308.974,4309.359,4311.667,4156.667,4251.795,4219.744,4277.051,4268.59,4398.974,4452.308,4340.897,4414.615
2024-07-03 15:44:10.339500,4310.897,4322.949,4302.564,4315.256,4317.051,4155.897,4243.974,4218.333,4260.385,4244.615,4434.744,4432.564,4355.641,4396.282
2024-07-03 15:44:10.347300,4301.538,4303.718,4300.769,4316.923,4294.231,4147.692,4237.436,4218.846,4247.564,4241.667,4432.949,4412.051,4324.487,4379.359
2024-07-03 15:44:10.355000,4287.436,4278.333,4302.564,4323.462,4258.077,4137.821,4230.513,4211.282,4244.359,4241.154,4394.231,4413.846,4286.41,4387.308
2024-07-03 15:44:10.362800,4286.41,4303.462,4290.513,4325.385,4269.359,4135.256,4224.615,4199.231,4242.179,4229.872,4400.0,4413.718,4292.949,4380.897
2024-07-03 15:44:10.370500,4286.282,4308.718,4278.718,4313.462,4313.205,4143.462,4223.333,4198.718,4241.795,4233.974,4426.923,4402.436,4297.564,4366.154
2024-07-03 15:44:10.378300,4283.974,4276.41,4284.103,4307.308,4318.846,4148.974,4226.154,4207.179,4246.667,4239.872,4409.103,4410.128,4275.641,4381.41
2024-07-03 15:44:10.386000,4295.769,4295.0,4301.923,4323.333,4298.974,4152.821,4234.615,4214.359,4260.0,4261.41,4400.641,4427.821,4307.051,4394.103
2024-07-03 15:44:10.393800,4293.077,4328.846,4304.487,4330.641,4305.0,4156.154,4232.564,4217.436,4257.692,4275.385,4420.641,4422.949,4337.308,4381.154
2024-07-03 15:44:10.401500,4280.256,4314.744,4303.846,4319.359,4314.103,4154.103,4226.923,4218.462,4240.897,4244.359,4430.897,4419.872,4295.641,4380.128
2024-07-03 15:44:10.409400,4289.872,4295.513,4315.769,4311.41,4296.41,4150.513,4230.769,4212.949,4237.436,4226.923,4432.179,4434.359,4288.462,4394.872
2024-07-03 15:44:10.417200,4297.436,4294.359,4312.821,4312.949,4281.026,4152.821,4234.487,4208.462,4246.41,4250.641,4423.718,4432.436,4333.718,4397.179
2024-07-03 15:44:10.425100,4291.795,4310.256,4300.256,4332.692,4293.59,4158.333,4233.333,4216.667,4249.103,4258.333,4411.154,4419.872,4327.564,4395.256
2024-07-03 15:44:10.433100,4293.59,4317.949,4304.744,4337.692,4312.179,4153.205,4228.59,4220.897,4245.128,4243.205,4404.872,4423.077,4298.718,4390.0
2024-07-03 15:44:10.440900,4309.359,4291.154,4313.718,4319.744,4320.385,4152.179,4229.487,4213.205,4246.282,4241.154,4416.154,4433.718,4306.41,4391.795
2024-07-03 15:44:10.448700,4312.821,4287.821,4308.333,4322.821,4324.615,4165.256,4234.872,4224.103,4257.051,4248.59,4435.769,4442.564,4309.103,4421.667
2024-07-03 15:44:10.456500,4291.538,4311.795,4296.667,4334.615,4290.641,4160.769,4230.897,4233.974,4256.282,4257.308,4434.615,4435.897,4304.744,4419.487
2024-07-03 15:44:10.464300,4284.487,4298.462,4292.051,4319.615,4254.744,4147.564,4225.385,4220.128,4229.872,4250.641,4418.077,4417.051,4312.436,4377.308
2024-07-03 15:44:10.472000,4293.462,4281.538,4293.333,4300.256,4290.256,4162.692,4231.026,4220.385,4233.718,4230.128,4406.538,4415.385,4309.615,4368.59
2024-07-03 15:44:10.479800,4285.897,4296.667,4289.615,4310.385,4327.179,4174.103,4236.282,4232.949,4271.026,4228.462,4408.718,4420.641,4292.692,4388.077
2024-07-03 15:44:10.487500,4281.154,4297.308,4295.769,4314.487,4306.538,4160.641,4232.949,4231.667,4268.462,4234.359,4419.872,4423.205,4290.769,4395.513
2024-07-03 15:44:10.495300,4304.872,4280.385,4322.051,4319.487,4277.308,4158.718,4228.718,4226.282,4241.923,4233.846,4430.769,4432.051,4313.462,4399.744
2024-07-03 15:44:10.503000,4318.974,4297.308,4323.333,4342.179,4290.256,4171.795,4221.667,4221.41,4243.205,4235.385,4418.718,4431.667,4331.538,4400.641
2024-07-03 15:44:10.510800,4309.103,4333.974,4296.282,4336.282,4320.128,4171.154,4213.077,4212.436,4255.0,4229.359,4394.231,4418.333,4314.744,4393.718
2024-07-03 15:44:10.518500,4309.487,4333.462,4296.154,4310.256,4312.051,4164.231,4212.692,4210.513,4248.974,4223.59,4406.538,4421.795,4301.923,4404.103
2024-07-03 15:44:10.526400,4319.872,4301.154,4321.026,4318.718,4278.59,4168.077,4216.538,4218.846,4247.564,4229.103,4447.821,4451.026,4325.641,4429.231
2024-07-03 15:44:10.534100,4320.641,4300.0,4320.128,4335.128,4269.103,4173.077,4218.59,4220.256,4255.0,4229.615,4448.974,4457.308,4336.282,4431.667
2024-07-03 15:44:10.541900,4309.359,4310.385,4299.359,4313.846,4278.974,4167.179,4214.487,4213.077,4250.513,4224.872,4410.641,4423.718,4331.282,4408.077
2024-07-03 15:44:10.549600,4305.128,4285.769,4293.205,4308.846,4297.179,4160.769,4205.385,4212.821,4250.897,4241.026,4403.59,4407.179,4334.103,4399.103
2024-07-03 15:44:10.557400,4308.846,4273.077,4295.641,4326.026,4307.051,4160.513,4195.128,4213.462,4249.231,4235.513,4426.026,4428.846,4308.077,4422.179
2024-07-03 15:44:10.565100,4304.744,4295.897,4295.128,4315.385,4276.282,4165.385,4190.897,4203.974,4230.256,4197.564,4436.282,4439.615,4281.282,4419.872
2024-07-03 15:44:10.572900,4290.256,4297.564,4293.59,4303.59,4253.462,4173.718,4197.308,4200.769,4231.026,4211.282,4434.615,4420.256,4323.333,4392.949
2024-07-03 15:44:10.580600,4289.615,4277.692,4289.615,4308.846,4282.692,4176.154,4201.282,4215.0,4264.487,4255.897,4431.154,4410.128,4360.769,4405.641
2024-07-03 15:44:10.588400,4311.667,4292.308,4280.897,4309.744,4305.385,4168.718,4197.179,4218.205,4269.231,4249.103,4425.256,4414.359,4331.538,4428.333
2024-07-03 15:44:10.596100,4312.949,4310.769,4279.359,4311.795,4290.0,4171.41,4206.026,4211.667,4243.462,4224.872,4421.538,4416.667,4315.0,4407.692
2024-07-03 15:44:10.604000,4283.718,4284.615,4281.026,4308.59,4270.641,4177.051,4208.077,4217.308,4246.154,4219.872,4417.949,4411.667,4325.385,4373.974
2024-07-03 15:44:10.611800,4271.538,4262.308,4283.462,4296.154,4263.333,4172.949,4197.051,4218.846,4266.154,4214.487,4410.769,4408.846,4313.718,4381.667
2024-07-03 15:44:10.619700,4297.564,4277.308,4287.821,4307.564,4283.462,4186.538,4217.179,4218.974,4267.949,4229.744,4418.205,4423.077,4314.744,4424.231
2024-07-03 15:44:10.627600,4315.641,4291.667,4280.513,4314.359,4302.692,4200.128,4231.538,4226.667,4256.026,4246.282,4428.846,4428.846,4344.872,4432.821
2024-07-03 15:44:10.635500,4304.615,4282.051,4273.846,4304.359,4271.923,4186.923,4202.051,4222.308,4245.128,4219.615,4432.564,4417.179,4347.949,4406.923
2024-07-03 15:44:10.643300,4291.795,4284.103,4284.487,4307.692,4242.949,4178.718,4186.282,4210.0,4241.667,4215.256,4433.077,4416.795,4321.538,4406.923
2024-07-03 15:44:10.651200,4294.231,4293.974,4293.077,4310.385,4267.051,4186.154,4200.769,4218.718,4252.179,4258.462,4430.256,4426.026,4326.538,4419.744
2024-07-03 15:44:10.659000,4303.846,4277.051,4287.821,4301.026,4309.231,4185.0,4207.436,4237.179,4268.333,4268.846,4433.718,4424.359,4352.179,4419.872
2024-07-03 15:44:10.666900,4304.872,4255.513,4282.692,4317.564,4291.154,4181.667,4210.897,4233.462,4265.128,4233.59,4447.564,4421.282,4342.308,4428.974
2024-07-03 15:44:10.674700,4305.128,4280.385,4288.333,4342.308,4255.769,4196.026,4216.538,4228.718,4258.333,4229.359,4448.205,4434.487,4316.154,4422.308
2024-07-03 15:44:10.682400,4301.282,4306.41,4293.718,4303.846,4280.385,4209.744,4215.897,4241.282,4272.821,4258.077,4428.718,4438.846,4330.0,4409.231
2024-07-03 15:44:10.690200,4294.744,4266.923,4292.821,4279.359,4279.615,4207.949,4220.897,4249.231,4285.256,4252.692,4440.385,4432.436,4351.538,4437.692
2024-07-03 15:44:10.697900,4296.667,4244.744,4287.692,4322.436,4241.923,4199.744,4210.513,4236.154,4268.333,4233.846,4464.615,4431.667,4343.59,4451.026
2024-07-03 15:44:10.705700,4292.179,4264.103,4283.59,4316.538,4245.897,4192.436,4185.769,4215.128,4259.359,4256.154,4441.026,4422.564,4338.077,4417.821
2024-07-03 15:44:10.713400,4288.462,4238.846,4280.256,4271.282,4264.359,4192.949,4179.744,4201.538,4261.282,4265.128,4420.128,4410.513,4330.769,4417.051
2024-07-03 15:44:10.721300,4290.897,4220.0,4267.949,4292.051,4264.744,4198.846,4187.436,4204.615,4237.949,4233.974,4427.308,4411.795,4312.564,4435.256
2024-07-03 15:44:10.729000,4287.949,4263.846,4262.821,4313.205,4274.103,4201.41,4194.872,4220.641,4230.769,4231.795,4421.795,4411.667,4324.231,4412.692
2024-07-03 15:44:10.736800,4282.564,4284.487,4275.128,4273.077,4274.872,4206.667,4199.872,4234.615,4272.821,4253.846,4429.231,4408.077,4341.282,4402.179
2024-07-03 15:44:10.744500,4289.872,4258.974,4284.615,4276.923,4262.692,4224.744,4205.897,4246.282,4305.385,4259.487,4464.487,4425.256,4343.846,4436.923
2024-07-03 15:44:10.752400,4298.333,4264.231,4281.795,4327.051,4286.026,4233.846,4209.359,4251.538,4302.179,4271.154,4475.769,4440.128,4361.026,4452.179
2024-07-03 15:44:10.760200,4292.564,4280.513,4277.179,4319.487,4293.077,4221.923,4207.436,4234.615,4282.564,4281.026,4452.692,4420.641,4355.385,4427.564
2024-07-03 15:44:10.768100,4284.872,4262.821,4275.385,4284.103,4256.282,4211.538,4200.385,4213.974,4252.436,4259.615,4434.359,4402.179,4318.846,4411.667
2024-07-03 15:44:10.775900,4281.795,4242.564,4276.538,4290.513,4252.821,4213.077,4190.0,4215.385,4238.718,4233.59,4429.103,4408.59,4318.333,4417.949
2024-07-03 15:44:10.783700,4280.0,4253.462,4279.872,4316.667,4291.282,4221.026,4183.718,4220.769,4261.795,4250.128,4432.821,4410.769,4337.564,4417.692
2024-07-03 15:44:10.791400,4284.615,4272.821,4278.974,4306.538,4293.462,4220.128,4191.41,4215.128,4280.128,4282.179,4446.41,4402.949,4326.795,4413.846
2024-07-03 15:44:10.799300,4292.564,4265.256,4283.59,4287.949,4241.41,4214.103,4201.923,4213.846,4271.795,4273.077,4463.077,4407.692,4330.0,4430.769
2024-07-03 15:44:10.807100,4300.769,4261.667,4291.923,4301.282,4245.128,4224.744,4199.615,4221.923,4262.308,4267.308,4469.744,4422.436,4363.974,4446.667
2024-07-03 15:44:10.815000,4302.821,4266.923,4297.179,4303.333,4305.256,4244.359,4205.256,4230.769,4257.436,4288.077,4462.308,4432.179,4369.487,4440.769
2024-07-03 15:44:10.822900,4300.769,4259.231,4299.615,4291.282,4300.513,4247.051,4218.846,4234.872,4263.846,4280.0,4467.692,4434.487,4336.41,4433.077
2024-07-03 15:44:10.830800,4298.462,4268.718,4290.897,4299.615,4257.179,4235.513,4211.154,4234.487,4282.949,4253.974,4474.744,4426.923,4323.205,4432.308
2024-07-03 15:44:10.838600,4291.538,4282.051,4282.821,4308.462,4268.718,4233.333,4196.795,4226.282,4284.872,4247.436,4462.821,4418.077,4352.692,4433.333
2024-07-03 15:44:10.846500,4291.026,4271.026,4286.795,4307.821,4290.513,4237.564,4201.154,4216.026,4260.513,4255.128,4453.205,4415.641,4367.051,4437.821
2024-07-03 15:44:10.854300,4302.692,4278.718,4298.462,4321.538,4275.0,4243.718,4215.128,4220.385,4249.487,4273.077,4468.718,4422.308,4341.41,4442.564
2024-07-03 15:44:10.862200,4315.256,4297.436,4305.897,4335.256,4278.846,4256.538,4221.154,4235.513,4276.282,4289.103,4493.59,4438.077,4335.0,4442.179
2024-07-03 15:44:10.870000,4312.179,4289.103,4301.282,4318.333,4306.154,4262.564,4217.436,4231.667,4284.487,4277.949,4487.308,4437.821,4367.949,4441.154
2024-07-03 15:44:10.877700,4304.744,4276.795,4302.692,4294.359,4302.821,4252.821,4211.154,4216.923,4259.872,4264.359,4479.359,4426.795,4386.41,4448.846
2024-07-03 15:44:10.885600,4316.41,4278.205,4316.923,4311.154,4277.949,4243.846,4212.179,4217.179,4256.41,4270.385,4490.128,4437.564,4365.0,4458.462
2024-07-03 15:44:10.893400,4333.462,4292.949,4323.718,4347.179,4284.872,4253.846,4222.179,4234.103,4273.718,4272.436,4495.0,4455.641,4352.051,4464.231
2024-07-03 15:44:10.901200,4335.769,4316.154,4320.385,4354.103,4317.692,4266.026,4231.41,4247.949,4270.769,4283.205,4497.051,4459.615,4376.282,4472.692
2024-07-03 15:44:10.908900,4330.0,4320.513,4325.513,4337.308,4322.051,4267.436,4233.974,4242.436,4253.59,4292.821,4510.0,4464.615,4397.051,4483.846
2024-07-03 15:44:10.916800,4323.718,4295.128,4326.667,4322.308,4287.051,4262.692,4228.333,4227.051,4264.103,4280.128,4510.641,4466.282,4377.436,4466.667
2024-07-03 15:44:10.924500,4325.0,4287.564,4328.462,4308.718,4283.846,4261.41,4230.0,4232.564,4283.333,4279.744,4505.256,4466.795,4360.128,4455.385
2024-07-03 15:44:10.932300,4338.59,4304.231,4338.846,4311.923,4319.231,4266.282,4239.615,4248.59,4269.359,4287.436,4514.744,4470.385,4378.59,4492.821
2024-07-03 15:44:10.940000,4340.0,4309.487,4332.692,4342.308,4314.615,4264.231,4236.154,4245.641,4261.795,4267.949,4495.0,4472.692,4381.667,4507.179
2024-07-03 15:44:10.947800,4315.256,4294.487,4325.128,4360.385,4265.897,4255.641,4228.59,4243.59,4286.795,4263.462,4472.564,4479.872,4361.41,4460.128
2024-07-03 15:44:10.955500,4308.974,4278.59,4328.205,4331.282,4267.821,4260.897,4230.513,4255.0,4289.872,4303.59,4497.692,4476.923,4377.821,4435.256
2024-07-03 15:44:10.963300,4319.744,4280.128,4315.513,4292.179,4305.128,4263.077,4224.103,4249.744,4259.615,4307.179,4502.949,4451.667,4393.846,4464.231
2024-07-03 15:44:10.971000,4303.59,4278.846,4297.308,4296.538,4290.256,4243.205,4212.436,4231.795,4255.128,4262.692,4471.282,4435.769,4355.513,4468.974
2024-07-03 15:44:10.978900,4285.0,4273.974,4298.718,4305.128,4277.051,4238.333,4216.795,4223.718,4280.0,4258.333,4470.128,4440.385,4337.692,4425.769
2024-07-03 15:44:10.986700,4292.051,4258.718,4312.564,4306.538,4281.538,4249.487,4218.974,4226.026,4278.718,4266.667,4476.154,4442.308,4347.179,4407.564
2024-07-03 15:44:10.994600,4304.359,4255.0,4318.718,4326.41,4273.974,4251.41,4214.744,4237.564,4263.077,4258.846,4464.487,4444.359,4349.231,4439.103
2024-07-03 15:44:11.002400,4308.462,4296.667,4313.846,4319.487,4278.974,4251.923,4223.718,4246.282,4261.026,4278.846,4478.333,4447.308,4368.974,4466.667
2024-07-03 15:44:11.010300,4310.0,4320.256,4313.974,4297.949,4291.667,4255.0,4233.846,4239.872,4271.41,4292.949,4502.564,4453.846,4379.744,4462.436
2024-07-03 15:44:11.018200,4312.692,4280.385,4325.897,4323.077,4288.205,4249.615,4229.103,4234.744,4271.154,4263.59,4498.718,4463.205,4355.128,4446.795
2024-07-03 15:44:11.026100,4318.333,4258.718,4333.846,4342.692,4288.974,4246.538,4231.154,4249.487,4262.308,4249.744,4485.0,4463.333,4352.949,4435.897
2024-07-03 15:44:11.033900,4331.282,4301.795,4333.718,4323.718,4305.0,4251.538,4245.897,4262.308,4279.231,4285.128,4488.846,4468.077,4374.359,4460.128
2024-07-03 15:44:11.041800,4339.103,4310.256,4340.641,4333.205,4297.179,4247.436,4244.744,4250.769,4299.103,4302.564,4507.051,4476.795,4374.231,4490.513
2024-07-03 15:44:11.049700,4323.205,4275.897,4343.462,4348.205,4284.359,4244.231,4231.154,4242.436,4288.59,4280.641,4505.897,4476.538,4364.359,4463.333
2024-07-03 15:44:11.057500,4313.077,4275.769,4335.0,4318.846,4287.821,4245.641,4226.41,4244.231,4265.769,4272.051,4476.026,4468.462,4357.308,4433.846
2024-07-03 15:44:11.065300,4325.0,4285.897,4325.641,4299.231,4303.333,4243.205,4230.128,4236.923,4258.333,4282.308,4472.051,4456.538,4354.615,4455.513
2024-07-03 15:44:11.073000,4325.513,4275.769,4323.718,4330.897,4291.026,4235.385,4232.692,4235.256,4258.59,4281.538,4498.462,4459.231,4339.872,4473.718
2024-07-03 15:44:11.080800,4308.077,4276.923,4324.359,4353.718,4251.667,4226.795,4232.179,4246.923,4265.128,4272.308,4490.769,4472.692,4327.949,4455.0
2024-07-03 15:44:11.088500,4314.359,4300.256,4323.462,4331.282,4282.436,4232.692,4234.487,4252.436,4285.513,4276.026,4469.231,4468.846,4370.513,4438.077
2024-07-03 15:44:11.096300,4338.205,4317.564,4330.513,4324.872,4338.333,4240.0,4236.795,4249.487,4286.154,4277.821,4481.41,4464.487,4409.615,4451.282
2024-07-03 15:44:11.104000,4332.821,4309.103,4336.026,4346.41,4305.769,4233.077,4231.923,4242.949,4261.667,4270.513,4496.538,4475.256,4358.59,4467.821
2024-07-03 15:44:11.111900,4319.231,4296.538,4332.821,4349.744,4262.308,4227.564,4229.103,4237.949,4260.641,4279.231,4490.897,4480.0,4320.0,4467.564
2024-07-03 15:44:11.119800,4326.667,4305.641,4339.872,4339.872,4296.667,4233.462,4250.385,4257.179,4286.667,4279.103,4483.077,4484.872,4374.744,4458.462
2024-07-03 15:44:11.127600,4336.923,4312.821,4353.462,4336.795,4324.872,4234.103,4267.436,4273.205,4291.154,4282.436,4487.436,4496.41,4387.949,4460.128
2024-07-03 15:44:11.135400,4341.41,4312.179,4345.256,4332.051,4299.231,4232.949,4256.538,4251.026,4274.487,4317.436,4497.308,4486.41,4359.615,4460.385
2024-07-03 15:44:11.143200,4334.744,4307.179,4326.026,4334.487,4285.385,4230.513,4244.231,4235.385,4263.205,4306.795,4490.769,4470.0,4376.667,4446.795
2024-07-03 15:44:11.150900,4311.154,4287.436,4324.872,4337.179,4297.179,4215.769,4244.359,4244.103,4263.205,4260.128,4476.538,4472.564,4387.821,4442.436
2024-07-03 15:44:11.158700,4298.974,4282.821,4335.0,4316.667,4307.436,4218.846,4260.641,4246.538,4272.051,4275.897,4476.923,4472.308,4348.974,4453.846
2024-07-03 15:44:11.166400,4323.077,4318.718,4351.923,4324.359,4318.077,4240.513,4284.872,4255.128,4278.59,4303.333,4466.154,4474.103,4328.59,4465.385
2024-07-03 15:44:11.174300,4338.462,4330.897,4361.154,4368.846,4308.077,4226.795,4272.821,4266.026,4269.231,4261.154,4446.667,4481.282,4343.077,4447.949
2024-07-03 15:44:11.182100,4313.718,4278.974,4350.769,4345.897,4278.718,4192.308,4231.154,4249.231,4253.974,4225.385,4450.769,4461.667,4328.974,4411.923
2024-07-03 15:44:11.190000,4293.59,4255.897,4342.949,4288.077,4277.308,4193.718,4226.41,4233.718,4260.385,4245.641,4456.282,4437.821,4313.718,4414.872
2024-07-03 15:44:11.197800,4308.59,4294.872,4357.308,4316.282,4302.821,4217.436,4257.436,4255.513,4271.667,4278.846,4456.282,4458.205,4330.385,4457.051
2024-07-03 15:44:11.205700,4328.974,4328.077,4373.077,4364.872,4320.0,4226.282,4268.333,4268.59,4268.205,4294.231,4472.821,4485.513,4362.436,4466.667
2024-07-03 15:44:11.213600,4328.077,4326.667,4372.436,4344.615,4307.949,4215.769,4263.846,4255.897,4262.564,4269.872,4485.897,4480.385,4367.564,4437.308
2024-07-03 15:44:11.221500,4325.641,4305.0,4373.974,4333.974,4276.795,4196.923,4261.154,4249.872,4261.667,4245.385,4476.667,4473.205,4330.0,4439.744
2024-07-03 15:44:11.229300,4326.923,4291.795,4376.795,4357.051,4276.282,4194.231,4255.769,4255.641,4273.205,4265.769,4456.667,4477.051,4323.718,4457.051
2024-07-03 15:44:11.237200,4329.744,4313.846,4383.462,4345.256,4319.615,4222.949,4278.846,4278.59,4305.385,4295.128,4467.179,4489.744,4383.59,4470.641
2024-07-03 15:44:11.245000,4345.128,4337.436,4397.436,4333.718,4328.718,4244.103,4305.641,4293.846,4311.282,4284.103,4509.872,4503.205,4402.949,4490.769
2024-07-03 15:44:11.252700,4358.462,4315.641,4395.769,4360.0,4295.513,4223.333,4276.41,4268.974,4277.051,4261.923,4510.641,4492.051,4339.231,4476.026
2024-07-03 15:44:11.260500,4347.436,4308.974,4381.41,4368.462,4288.462,4199.103,4239.872,4242.821,4262.949,4268.205,4469.872,4475.0,4334.487,4446.795
2024-07-03 15:44:11.268200,4325.128,4328.462,4371.923,4340.256,4300.641,4205.897,4252.051,4249.359,4271.026,4275.641,4464.744,4468.718,4395.128,4451.923
2024-07-03 15:44:11.276000,4321.795,4316.282,4372.821,4326.538,4290.769,4217.436,4268.718,4259.615,4268.59,4268.462,4481.026,4466.41,4375.385,4462.051
2024-07-03 15:44:11.283700,4336.795,4307.436,4380.128,4346.026,4290.513,4218.333,4261.026,4258.974,4275.897,4256.795,4473.974,4478.59,4321.795,4460.256
2024-07-03 15:44:11.291600,4345.513,4324.872,4385.0,4362.821,4315.385,4217.949,4252.821,4261.795,4284.103,4256.282,4472.692,4487.051,4348.333,4464.231
2024-07-03 15:44:11.299400,4337.308,4320.513,4374.487,4357.051,4295.128,4210.128,4248.205,4263.718,4263.718,4274.231,4478.718,4461.282,4388.974,4444.359
2024-07-03 15:44:11.307300,4333.846,4316.795,4365.0,4343.333,4260.128,4204.231,4250.897,4263.205,4257.949,4289.231,4474.103,4446.795,4376.282,4425.256
2024-07-03 15:44:11.315200,4347.436,4338.462,4377.949,4335.769,4293.718,4218.333,4263.462,4265.0,4290.641,4282.308,4478.077,4474.231,4355.256,4458.462
2024-07-03 15:44:11.323100,4344.744,4321.026,4390.0,4343.59,4333.974,4237.692,4279.359,4281.667,4308.974,4265.641,4499.872,4497.821,4352.179,4486.154
2024-07-03 15:44:11.330900,4328.333,4295.385,4388.718,4362.821,4304.872,4234.103,4282.051,4294.487,4292.949,4270.256,4516.795,4499.744,4364.615,4480.897
2024-07-03 15:44:11.338800,4340.769,4317.949,4385.769,4355.128,4272.308,4218.59,4260.256,4275.641,4270.128,4284.615,4503.333,4489.103,4380.128,4468.205
2024-07-03 15:44:11.346600,4358.462,4328.333,4380.256,4326.923,4278.59,4223.205,4247.692,4259.103,4267.436,4283.462,4477.436,4468.974,4372.821,4449.872
2024-07-03 15:44:11.354500,4334.615,4310.128,4359.615,4321.923,4279.359,4234.615,4250.897,4253.974,4270.385,4263.077,4456.795,4441.667,4336.154,4426.923
2024-07-03 15:44:11.362300,4300.385,4297.051,4334.744,4322.179,4264.487,4226.282,4238.462,4232.692,4250.0,4227.051,4429.872,4421.795,4304.487,4419.231
2024-07-03 15:44:11.370200,4292.821,4284.615,4334.744,4311.667,4262.564,4218.205,4223.59,4227.821,4232.051,4213.718,4435.897,4428.462,4315.897,4430.641
2024-07-03 15:44:11.378000,4307.949,4291.667,4357.692,4320.256,4284.615,4229.103,4232.949,4267.308,4276.282,4256.026,4486.41,4456.154,4368.077,4447.821
2024-07-03 15:44:11.385900,4334.872,4322.179,4375.0,4343.718,4293.205,4232.821,4242.821,4292.821,4329.231,4318.205,4514.231,4475.641,4404.487,4463.718
2024-07-03 15:44:11.393700,4351.538,4325.513,4380.897,4350.256,4286.154,4228.077,4244.487,4283.077,4307.436,4328.59,4517.692,4487.436,4401.282,4481.923
2024-07-03 15:44:11.401600,4342.051,4319.359,4381.026,4343.59,4300.128,4235.897,4251.923,4281.795,4276.667,4285.128,4528.718,4496.154,4394.359,4500.256
2024-07-03 15:44:11.409500,4328.974,4320.513,4372.692,4327.949,4297.949,4237.692,4246.282,4280.385,4274.103,4238.846,4511.026,4479.487,4375.641,4491.154
2024-07-03 15:44:11.417200,4336.026,4310.385,4368.333,4326.923,4271.538,4230.128,4228.462,4268.718,4264.487,4238.846,4488.59,4469.103,4361.667,4467.949
2024-07-03 15:44:11.425000,4343.077,4312.179,4375.256,4337.564,4266.667,4232.436,4221.667,4265.256,4278.333,4295.641,4507.308,4486.795,4388.846,4472.308
2024-07-03 15:44:11.432700,4326.923,4302.436,4366.282,4316.026,4262.308,4228.462,4213.205,4259.744,4290.641,4318.846,4513.462,4476.538,4394.359,4478.462
2024-07-03 15:44:11.440500,4320.897,4284.744,4351.026,4306.667,4262.692,4224.872,4214.872,4259.231,4270.769,4288.846,4495.385,4455.897,4363.718,4469.615
2024-07-03 15:44:11.448200,4336.41,4309.231,4359.615,4334.359,4289.872,4239.744,4236.538,4275.256,4283.846,4291.923,4499.359,4477.436,4371.667,4472.949
2024-07-03 15:44:11.456000,4323.846,4326.538,4361.282,4337.564,4289.359,4244.359,4235.385,4276.795,4311.41,4304.359,4506.795,4487.051,4394.744,4476.154
2024-07-03 15:44:11.463700,4301.923,4300.385,4342.436,4322.179,4265.641,4227.308,4211.154,4259.872,4279.103,4271.41,4497.821,4457.179,4376.538,4461.538
2024-07-03 15:44:11.471500,4314.103,4291.282,4336.282,4324.231,4277.821,4231.41,4214.615,4260.897,4256.41,4250.641,4489.744,4444.744,4365.641,4448.846
2024-07-03 15:44:11.479200,4309.103,4294.615,4337.436,4319.487,4282.436,4248.59,4222.821,4266.282,4279.359,4263.718,4486.026,4447.949,4364.103,4443.59
2024-07-03 15:44:11.487000,4294.359,4289.231,4331.026,4306.282,4256.923,4248.077,4215.385,4260.0,4270.385,4264.487,4493.974,4445.769,4342.692,4446.026
2024-07-03 15:44:11.494700,4307.564,4300.128,4326.923,4302.051,4263.974,4250.513,4221.923,4256.154,4253.462,4270.256,4492.179,4446.538,4351.154,4444.359
2024-07-03 15:44:11.502500,4294.872,4289.872,4316.41,4292.051,4256.41,4246.923,4219.872,4244.103,4267.179,4282.436,4465.385,4427.692,4363.846,4418.59
2024-07-03 15:44:11.510300,4267.949,4261.795,4313.333,4291.923,4235.897,4240.256,4206.667,4244.615,4281.795,4272.564,4465.0,4417.051,4350.641,4412.564
2024-07-03 15:44:11.518100,4282.564,4283.462,4326.282,4313.205,4269.872,4249.615,4214.872,4268.205,4287.821,4256.795,4475.769,4438.718,4353.59,4436.667
2024-07-03 15:44:11.525800,4298.59,4313.077,4328.077,4313.846,4289.615,4255.513,4222.179,4271.282,4277.179,4250.769,4465.513,4443.333,4354.744,4433.333
2024-07-03 15:44:11.533600,4289.744,4296.154,4328.333,4291.667,4260.0,4250.256,4211.538,4260.128,4251.154,4241.026,4470.513,4434.231,4336.41,4420.769
2024-07-03 15:44:11.541300,4293.462,4283.333,4336.923,4297.821,4250.0,4247.564,4204.744,4260.513,4253.59,4238.59,4488.077,4444.487,4343.462,4434.615
2024-07-03 15:44:11.549100,4300.256,4296.026,4334.103,4327.436,4252.179,4249.231,4202.949,4256.282,4278.077,4247.692,4471.154,4445.641,4356.41,4433.205
2024-07-03 15:44:11.556800,4298.205,4299.744,4324.487,4322.308,4245.897,4257.051,4199.615,4241.154,4270.128,4247.051,4457.949,4432.051,4345.641,4422.692
2024-07-03 15:44:11.564700,4305.769,4298.59,4323.846,4292.179,4275.128,4271.667,4206.41,4242.821,4266.795,4257.692,4476.667,4436.026,4347.051,4442.051
2024-07-03 15:44:11.572500,4312.692,4296.538,4329.103,4297.308,4279.872,4269.231,4206.923,4254.744,4288.718,4285.641,4481.41,4448.077,4349.615,4452.436
2024-07-03 15:44:11.580400,4308.333,4290.513,4337.821,4318.974,4239.103,4265.897,4202.692,4256.538,4281.282,4285.641,4474.231,4454.744,4352.564,4441.154
2024-07-03 15:44:11.588200,4294.615,4298.462,4333.974,4312.308,4248.077,4283.974,4210.128,4249.487,4275.513,4270.641,4482.308,4453.333,4387.949,4443.846
2024-07-03 15:44:11.596100,4288.846,4298.333,4312.949,4291.41,4274.872,4286.026,4211.667,4240.513,4289.872,4283.205,4498.59,4442.692,4406.795,4441.923
2024-07-03 15:44:11.604000,4291.923,4269.872,4307.051,4286.41,4246.923,4262.436,4197.692,4247.436,4275.128,4277.436,4512.051,4444.487,4381.538,4447.308
2024-07-03 15:44:11.611700,4286.41,4254.231,4319.872,4295.513,4224.744,4255.385,4194.872,4263.205,4262.436,4247.179,4511.41,4459.744,4368.077,4483.718
2024-07-03 15:44:11.619500,4275.0,4267.308,4317.949,4288.974,4259.744,4274.872,4208.333,4265.385,4289.487,4262.821,4506.026,4463.59,4384.872,4484.359
2024-07-03 15:44:11.627200,4276.026,4265.385,4310.385,4268.333,4272.308,4284.103,4215.0,4264.615,4300.513,4293.974,4516.795,4458.846,4413.077,4438.59
2024-07-03 15:44:11.635000,4281.154,4245.256,4319.744,4263.718,4233.333,4276.538,4215.256,4270.385,4292.308,4289.744,4523.333,4461.026,4429.744,4430.385
2024-07-03 15:44:11.642700,4279.615,4237.692,4324.744,4278.846,4227.051,4274.487,4215.385,4268.077,4308.462,4295.897,4522.692,4468.846,4423.205,4468.205
2024-07-03 15:44:11.650500,4280.897,4245.513,4321.282,4279.487,4262.436,4282.821,4215.128,4265.256,4315.513,4318.974,4541.923,4484.615,4423.846,4498.59
2024-07-03 15:44:11.658200,4277.436,4262.436,4330.128,4274.103,4274.487,4293.974,4217.821,4278.718,4305.256,4309.615,4544.103,4496.41,4432.692,4491.667
2024-07-03 15:44:11.666000,4276.795,4271.923,4334.103,4292.051,4253.205,4294.359,4218.205,4279.744,4306.538,4285.385,4519.231,4481.667,4415.641,4452.821
2024-07-03 15:44:11.673700,4294.615,4270.641,4324.744,4300.769,4250.513,4286.41,4216.667,4263.974,4302.821,4293.333,4524.487,4465.0,4414.487,4442.564
2024-07-03 15:44:11.681500,4305.769,4271.41,4321.923,4284.359,4265.385,4280.128,4217.308,4263.462,4288.333,4314.487,4546.923,4469.872,4441.923,4479.359
2024-07-03 15:44:11.689200,4297.179,4266.923,4321.923,4277.821,4266.41,4281.282,4214.615,4272.692,4290.897,4307.949,4531.667,4474.872,4429.487,4485.256
2024-07-03 15:44:11.697000,4293.59,4259.231,4317.692,4279.744,4263.718,4287.692,4214.872,4275.641,4310.385,4282.179,4510.897,4466.154,4400.385,4467.821
2024-07-03 15:44:11.704800,4283.846,4258.333,4316.41,4280.0,4261.154,4288.462,4225.513,4275.897,4303.462,4267.564,4520.897,4460.897,4398.59,4473.59
2024-07-03 15:44:11.712600,4260.897,4242.051,4314.359,4290.641,4250.641,4279.615,4232.436,4275.513,4280.128,4262.564,4524.359,4463.846,4390.256,4466.923
2024-07-03 15:44:11.720300,4273.846,4225.256,4311.923,4291.154,4248.333,4275.641,4227.564,4282.051,4289.487,4266.795,4510.128,4466.282,4383.974,4451.154
2024-07-03 15:44:11.728200,4297.692,4253.077,4305.256,4266.282,4270.385,4284.872,4226.026,4300.769,4315.513,4282.949,4503.077,4463.462,4402.564,4446.923
2024-07-03 15:44:11.736000,4280.0,4280.897,4296.026,4260.897,4271.795,4289.487,4229.487,4315.641,4331.667,4283.077,4513.077,4459.231,4410.0,4439.359
2024-07-03 15:44:11.743900,4268.718,4266.795,4301.154,4282.308,4243.846,4288.846,4231.667,4311.923,4318.846,4282.179,4531.026,4465.128,4396.41,4448.462
2024-07-03 15:44:11.751700,4280.897,4256.282,4308.59,4285.0,4251.41,4296.154,4235.256,4301.538,4287.821,4310.513,4534.744,4468.718,4396.667,4463.205
2024-07-03 15:44:11.759600,4270.641,4264.872,4296.538,4275.897,4275.385,4295.256,4228.333,4290.128,4291.667,4312.821,4512.308,4452.051,4407.692,4433.077
2024-07-03 15:44:11.767400,4253.462,4265.0,4283.205,4278.59,4255.0,4281.41,4211.026,4280.641,4323.846,4272.051,4484.359,4436.667,4399.359,4405.897
2024-07-03 15:44:11.775300,4265.641,4266.41,4287.436,4278.718,4228.718,4274.615,4206.154,4280.897,4322.179,4256.667,4487.564,4443.718,4383.718,4433.205
2024-07-03 15:44:11.783100,4288.974,4281.923,4298.462,4282.821,4249.487,4278.974,4215.128,4278.974,4293.205,4267.564,4510.897,4452.821,4379.744,4448.333
2024-07-03 15:44:11.791000,4290.769,4277.821,4303.974,4292.821,4274.231,4277.821,4217.436,4268.846,4284.872,4261.282,4505.385,4449.103,4367.179,4425.385
2024-07-03 15:44:11.798900,4280.128,4269.103,4307.308,4289.487,4264.744,4279.487,4211.282,4269.744,4286.282,4257.564,4487.051,4452.821,4367.436,4424.103
2024-07-03 15:44:11.806700,4282.821,4285.256,4307.821,4279.744,4253.718,4284.744,4215.513,4285.128,4294.231,4269.103,4494.103,4463.333,4406.154,4452.308
2024-07-03 15:44:11.814500,4285.385,4296.026,4304.487,4275.769,4245.641,4284.231,4224.615,4286.538,4307.051,4265.0,4514.231,4461.538,4425.641,4458.974
2024-07-03 15:44:11.822200,4283.718,4282.949,4307.564,4281.923,4225.0,4278.846,4223.205,4278.333,4297.436,4264.872,4520.897,4459.872,4406.41,4448.846
2024-07-03 15:44:11.830000,4288.974,4264.103,4306.923,4288.462,4209.231,4269.615,4210.769,4277.308,4287.564,4272.564,4496.667,4463.718,4382.308,4439.103
2024-07-03 15:44:11.837700,4286.41,4260.385,4286.538,4273.205,4220.769,4268.718,4205.513,4275.641,4280.897,4255.513,4476.667,4453.462,4364.872,4426.282
